Jaz Data File
++++++++++++++++++++++++++++++++++++
Date: Wed Feb 07 06:54:36 2024
User: jaz
Dark Spectrum Present: Yes
Reference Spectrum Present: Yes
Processed Spectrum Present: Yes
Spectrometers: JAZA3692
Integration Time (usec): 43800 (JAZA3692)
Spectra Averaged: 1 (JAZA3692)
Boxcar Smoothing: 0 (JAZA3692)
Correct for Electrical Dark: No (JAZA3692)
Strobe/Lamp Enabled: Yes (JAZA3692)
Correct for Detector Non-linearity: No (JAZA3692)
Correct for Stray Light: No (JAZA3692)
Number of Pixels in Processed Spectrum: 2048
>>>>>Begin Processed Spectral Data<<<<<
W	D	R	S	P
190.244385	0.000000	0.000000	0.000000	0.000000
190.627136	0.000000	0.000000	0.000000	0.000000
191.009842	892.004150	873.799988	846.493713	250.000168
191.392532	855.595825	892.004150	901.106262	125.000084
191.775177	960.269775	844.218201	892.004150	58.823524
192.157791	967.096313	969.371887	887.453125	-3499.916748
192.540390	892.004150	894.279663	944.341125	2300.008057
192.922943	939.790100	935.239075	946.616638	-150.000000
193.305481	980.749451	928.412476	889.728638	173.913025
193.687958	917.034912	937.514587	917.034912	0.000000
194.070419	967.096313	905.657288	935.239075	51.851795
194.452866	948.892151	935.239075	928.412476	150.000443
194.835251	932.963501	985.300537	921.585938	-21.739029
195.217621	917.034912	907.932800	851.044800	724.997803
195.599960	962.545288	939.790100	939.790100	100.000000
195.982254	932.963501	944.341125	894.279663	-339.999237
196.364517	973.922913	955.718750	939.790100	187.500046
196.746750	967.096313	976.198425	994.402588	299.999329
197.128952	967.096313	892.004150	923.861450	57.575733
197.511139	864.697876	919.310425	919.310425	100.000000
197.893280	962.545288	889.728638	932.963501	40.625031
198.275391	953.443237	907.932800	862.422363	200.000000
198.657471	903.381775	937.514587	871.524475	-93.333359
199.039520	948.892151	935.239075	955.718750	-50.000446
199.421539	917.034912	998.953613	912.483826	-5.555614
199.803513	951.167725	973.922913	921.585938	-130.000183
200.185471	953.443237	983.024963	937.514587	-53.846249
200.567383	967.096313	985.300537	953.443237	-74.999496
200.949265	951.167725	1010.331238	921.585938	-50.000053
201.331131	898.830688	964.820801	948.892151	75.862068
201.712967	923.861450	898.830688	930.687988	-27.272594
202.094742	903.381775	942.065613	882.902100	-52.941166
202.476517	944.341125	887.453125	903.381775	71.999985
202.858231	976.198425	973.922913	944.341125	1400.005371
203.239944	1044.463989	903.381775	962.545288	58.064514
203.621582	937.514587	1030.810913	932.963501	-4.878098
204.003235	953.443237	955.718750	907.932800	-2000.008057
204.384827	951.167725	932.963501	892.004150	324.999176
204.766388	969.371887	903.381775	873.799988	144.827606
205.147934	873.799988	901.106262	898.830688	91.666481
205.529449	923.861450	910.208313	946.616638	-166.666367
205.910904	910.208313	955.718750	937.514587	60.000027
206.292343	903.381775	978.473938	821.463013	-109.090958
206.673767	885.177612	907.932800	957.994263	320.000214
207.055115	871.524475	985.300537	935.239075	56.000004
207.436462	948.892151	896.555176	944.341125	8.695621
207.817780	955.718750	917.034912	878.351013	200.000153
208.199051	853.320313	910.208313	939.790100	152.000046
208.580307	832.840637	976.198425	903.381775	49.206352
208.961517	903.381775	957.994263	928.412476	45.833290
209.342712	905.657288	905.657288	853.320313	0.000000
209.723846	955.718750	969.371887	869.248962	-633.332764
210.104965	969.371887	957.994263	912.483826	499.999451
210.486069	914.759338	946.616638	917.034912	7.143022
210.867111	912.483826	962.545288	921.585938	18.181873
211.248123	905.657288	885.177612	844.218201	300.000305
211.629120	926.136963	917.034912	910.208313	175.000671
212.010071	873.799988	971.647400	919.310425	46.511642
212.390991	857.871338	946.616638	932.963501	84.615372
212.771881	946.616638	937.514587	871.524475	825.002686
213.152756	876.075500	973.922913	880.626526	4.651145
213.533569	864.697876	930.687988	853.320313	-17.241316
213.914368	876.075500	951.167725	837.391663	-51.515106
214.295135	903.381775	896.555176	903.381775	-0.000000
214.675858	923.861450	967.096313	935.239075	26.315857
215.056549	866.973450	901.106262	932.963501	193.333176
215.437225	832.840637	907.932800	887.453125	72.727280
215.817841	910.208313	932.963501	860.146851	-220.000214
216.198441	973.922913	855.595825	866.973450	90.384598
216.579025	880.626526	932.963501	1010.331238	247.826157
216.959549	942.065613	878.351013	880.626526	96.428589
217.340057	932.963501	1003.504700	946.616638	19.354841
217.720535	889.728638	860.146851	926.136963	-123.076828
218.100967	953.443237	923.861450	910.208313	146.153870
218.481369	939.790100	948.892151	969.371887	325.001343
218.861740	910.208313	939.790100	866.973450	-146.153656
219.242065	912.483826	944.341125	882.902100	-92.856979
219.622391	869.248962	935.239075	905.657288	55.172394
220.002670	896.555176	896.555176	864.697876	0.000000
220.382919	926.136963	928.412476	892.004150	-1500.005371
220.763123	944.341125	937.514587	885.177612	866.669373
221.143295	873.799988	973.922913	844.218201	-29.545469
221.523453	921.585938	928.412476	992.127075	1033.336914
221.903549	848.769287	942.065613	866.973450	19.512197
222.283630	892.004150	926.136963	989.851563	286.666718
222.663696	932.963501	1001.229126	1023.984375	133.333389
223.043701	980.749451	939.790100	930.687988	122.222305
223.423676	862.422363	930.687988	928.412476	96.666679
223.803635	944.341125	946.616638	839.667175	-4600.016113
224.183548	980.749451	955.718750	930.687988	200.000244
224.563431	935.239075	1012.606750	930.687988	-5.882413
224.943283	946.616638	987.576050	930.687988	-38.888863
225.323105	951.167725	960.269775	923.861450	-300.001343
225.702881	901.106262	898.830688	923.861450	-999.975830
226.082642	853.320313	903.381775	914.759338	122.727188
226.462357	905.657288	1046.739624	907.932800	1.612897
226.842041	907.932800	1055.841675	917.034912	6.153864
227.221695	857.871338	980.749451	889.728638	25.925936
227.601318	935.239075	978.473938	882.902100	-121.052711
227.980911	921.585938	1028.535400	889.728638	-29.787247
228.360474	917.034912	939.790100	869.248962	-210.000244
228.739990	905.657288	957.994263	860.146851	-86.956566
229.119476	946.616638	1042.188477	937.514587	-9.523779
229.498932	971.647400	1119.556274	873.799988	-66.153847
229.878372	871.524475	1171.893188	857.871338	-4.545459
230.257736	928.412476	1171.893188	930.687988	0.934576
230.637115	855.595825	1112.729614	896.555176	15.929198
231.016449	946.616638	1158.240112	948.892151	1.075265
231.395737	853.320313	1115.005249	887.453125	13.043476
231.774994	912.483826	1083.147949	962.545288	29.333324
232.154221	921.585938	1183.270874	898.830688	-8.695666
232.533417	894.279663	1051.290649	926.136963	20.289854
232.912582	926.136963	1037.637451	921.585938	-4.081619
233.291702	821.463013	1030.810913	926.136963	50.000000
233.670792	910.208313	1049.015137	964.820801	39.344238
234.049866	926.136963	1058.117188	855.595825	-53.448261
234.428894	853.320313	1074.045776	901.106262	21.649496
234.807892	932.963501	1089.974487	896.555176	-23.188393
235.186874	880.626526	1135.484863	912.483826	12.500003
235.565781	989.851563	1046.739624	919.310425	-123.999893
235.944687	957.994263	1103.627563	851.044800	-73.437508
236.323547	917.034912	1105.903076	919.310425	1.204815
236.702377	960.269775	1039.912964	971.647400	14.285748
237.081177	873.799988	1101.352051	889.728638	7.000002
237.459946	869.248962	1178.719727	964.820801	30.882347
237.838669	969.371887	1149.138062	937.514587	-17.721521
238.217361	955.718750	1140.035889	912.483826	-23.456812
238.596039	953.443237	1083.147949	910.208313	-33.333347
238.974670	937.514587	1133.209351	951.167725	6.976751
239.353271	901.106262	1126.382813	964.820801	28.282810
239.731842	930.687988	1169.617676	955.718750	10.476204
240.110367	901.106262	1158.240112	912.483826	4.424763
240.488876	871.524475	1167.342163	930.687988	19.999992
240.867340	896.555176	1235.607788	928.412476	9.395975
241.245789	894.279663	1119.556274	955.718750	27.272732
241.624176	910.208313	1233.332275	939.790100	9.154935
242.002548	955.718750	1319.802124	976.198425	5.624996
242.380890	882.902100	1308.424438	960.269775	18.181812
242.759186	907.932800	1454.057739	917.034912	1.666672
243.137451	894.279663	1481.364014	866.973450	-4.651157
243.515686	917.034912	1556.456177	912.483826	-0.711751
243.893890	885.177612	1658.854614	896.555176	1.470583
244.272049	948.892151	1479.088501	946.616638	-0.429183
244.650192	926.136963	1567.833862	907.932800	-2.836879
245.028290	844.218201	1415.373901	939.790100	16.733072
245.406357	901.106262	1369.863525	919.310425	3.883495
245.784393	907.932800	1372.139038	944.341125	7.843136
246.162384	928.412476	1365.312500	948.892151	4.687497
246.540359	919.310425	1454.057739	937.514587	3.404255
246.918289	901.106262	1636.099487	901.106262	0.000000
247.296204	894.279663	1656.579102	978.473938	11.044777
247.674057	926.136963	1952.396851	1037.637451	10.864742
248.051895	844.218201	2207.255127	1010.331238	12.186980
248.429703	914.759338	2129.887451	985.300537	5.805248
248.807465	942.065613	2079.825928	989.851563	4.200002
249.185196	835.116150	2002.458252	1083.147949	21.247568
249.562897	917.034912	1781.732788	1051.290649	15.526318
249.940567	921.585938	1695.262939	1049.015137	16.470594
250.318192	919.310425	1595.140137	976.198425	8.417505
250.695801	901.106262	1567.833862	1008.055725	16.040953
251.073349	885.177612	1522.323364	1003.504700	18.571432
251.450882	937.514587	1495.017212	964.820801	4.897953
251.828400	937.514587	1469.986450	1035.361938	18.376060
252.205872	935.239075	1510.945801	969.371887	5.928854
252.583313	907.932800	1599.691162	989.851563	11.842107
252.960693	896.555176	1590.588989	967.096313	10.163934
253.338074	812.360901	1604.242188	998.953613	23.563217
253.715408	848.769287	1677.058838	955.718750	12.912086
254.092682	944.341125	1615.619751	1046.739624	15.254247
254.469955	903.381775	1504.119263	971.647400	11.363637
254.847198	848.769287	1456.333252	910.208313	10.112355
255.224365	887.453125	1449.506714	969.371887	14.574903
255.601563	869.248962	1415.373901	980.749451	20.416662
255.978683	960.269775	1424.476074	1005.780212	9.803925
256.355743	814.636475	1458.608887	985.300537	26.501766
256.732819	962.545288	1410.822876	967.096313	1.015225
257.109894	951.167725	1454.057739	1042.188477	18.099535
257.486877	914.759338	1451.782227	980.749451	12.288137
257.863831	930.687988	1583.762451	967.096313	5.574912
258.240753	901.106262	1670.232300	1008.055725	13.905323
258.617645	898.830688	1663.405762	989.851563	11.904766
258.994507	914.759338	1795.385864	1039.912964	14.211884
259.371307	923.861450	1947.845825	1014.882263	8.888886
259.748108	1019.433350	1929.641602	1023.984375	0.499998
260.124878	896.555176	2145.816162	1008.055725	8.925321
260.501617	946.616638	2327.857666	1083.147949	9.884685
260.878296	912.483826	2685.114502	1142.311401	12.965340
261.254944	887.453125	2778.410889	1231.056763	18.170879
261.631561	912.483826	2569.062988	1126.382813	12.912090
262.008179	914.759338	2264.143311	1055.841675	10.455314
262.384735	907.932800	2154.918213	1060.392700	12.226278
262.761261	937.514587	1997.907227	1078.596802	13.304715
263.137695	901.106262	1881.855713	1103.627563	20.649647
263.514191	855.595825	1815.865601	960.269775	10.900474
263.890594	912.483826	1745.324463	937.514587	3.005468
264.267029	962.545288	1795.385864	1003.504700	4.918037
264.643341	880.626526	1672.507813	989.851563	13.793107
265.019653	885.177612	1758.977539	985.300537	11.458335
265.395935	857.871338	1763.528564	907.932800	5.527639
265.772217	935.239075	1740.773438	1053.566162	14.689266
266.148407	917.034912	1779.457275	1101.352051	21.372026
266.524597	928.412476	1818.141113	994.402588	7.416881
266.900726	928.412476	1849.998413	1105.903076	19.259256
267.276855	896.555176	1929.641602	1023.984375	12.334805
267.652924	944.341125	1991.080688	1019.433350	7.173917
268.028992	976.198425	2027.489014	1035.361938	5.627704
268.404999	1003.504700	2032.040039	1026.259888	2.212387
268.781006	914.759338	2034.315552	1030.810913	10.365855
269.156921	919.310425	2011.560425	1030.810913	10.208330
269.532837	928.412476	2000.182739	1012.606750	7.855627
269.908661	921.585938	1991.080688	1001.229126	7.446805
270.284546	923.861450	2009.284912	1026.259888	9.433962
270.660339	919.310425	2050.244141	1012.606750	8.249496
271.036133	905.657288	2068.448486	1046.739624	12.133075
271.411835	892.004150	2063.897461	1069.494751	15.145628
271.787537	869.248962	2266.418701	1096.801025	16.286644
272.163239	894.279663	2571.338623	1117.280762	13.297153
272.538849	960.269775	2598.644775	1076.321289	7.083330
272.914459	960.269775	2453.011475	1067.219238	7.164633
273.290070	905.657288	2430.256104	1083.147949	11.641794
273.665588	866.973450	2387.021240	1033.086426	10.928142
274.041046	932.963501	2323.306641	989.851563	4.091656
274.416565	889.728638	2325.582275	1080.872437	13.312206
274.791962	951.167725	2216.357178	1033.086426	6.474817
275.167389	889.728638	2264.143311	973.922913	6.125828
275.542755	928.412476	2136.714111	1062.668213	11.111111
275.918060	971.647400	2179.948975	1010.331238	3.201505
276.293365	939.790100	2179.948975	1058.117188	9.541285
276.668640	917.034912	2220.908203	1101.352051	14.136124
277.043854	942.065613	2341.510986	1103.627563	11.544713
277.419037	944.341125	2323.306641	996.678101	3.795379
277.794189	914.759338	2291.449463	1108.178589	14.049584
278.169312	860.146851	2330.133301	1103.627563	16.563467
278.544373	910.208313	2261.867676	1010.331238	7.407408
278.919464	892.004150	2236.836914	1062.668213	12.690356
279.294464	896.555176	2318.755615	1117.280762	15.520005
279.669464	862.422363	2236.836914	1001.229126	10.099338
280.044403	889.728638	2239.112549	983.024963	6.913994
280.419312	926.136963	2302.827148	1044.463989	8.595037
280.794189	896.555176	2380.194824	1033.086426	9.202454
281.169037	896.555176	2366.541748	1053.566162	10.681117
281.543854	953.443237	2566.787354	1030.810913	4.795485
281.918671	885.177612	2603.195801	1042.188477	9.139069
282.293365	951.167725	2701.043213	1092.250000	8.062418
282.668091	980.749451	2746.553711	1010.331238	1.675259
283.042786	917.034912	2960.452637	1060.392700	7.015589
283.417419	857.871338	2892.187012	1153.689087	14.541389
283.792053	889.728638	2842.125488	1140.035889	12.820511
284.166595	905.657288	2682.839111	1103.627563	11.139562
284.541138	919.310425	2664.634766	1071.770264	8.735330
284.915619	919.310425	2594.093750	1115.005249	11.684785
285.290100	898.830688	2687.390137	1133.209351	13.104326
285.664520	880.626526	2776.135498	1126.382813	12.965187
286.038940	805.534363	2862.605225	1158.240112	17.146019
286.413300	876.075500	2846.676514	1169.617676	14.896073
286.787628	887.453125	2935.421875	1199.199463	15.222221
287.161896	889.728638	3147.045166	1117.280762	10.080648
287.536194	835.116150	3108.361328	1242.434326	17.917917
287.910400	901.106262	3005.962891	1244.709839	16.324322
288.284607	869.248962	2869.431641	1203.750488	16.723549
288.658752	921.585938	2812.543701	1187.821899	14.079424
289.032867	951.167725	2662.359375	1128.658325	10.372339
289.406921	946.616638	2851.227539	1165.066650	11.469535
289.781006	957.994263	2778.410889	1194.648438	13.000001
290.154999	889.728638	2792.063965	1294.771362	21.291868
290.529022	898.830688	2883.084961	1244.709839	17.431190
290.902954	928.412476	3165.249512	1249.260864	14.343843
291.276825	930.687988	3192.555664	1310.699951	16.800804
291.650757	930.687988	3044.646729	1297.046875	17.330465
292.024597	928.412476	3081.055176	1312.975464	17.864693
292.398407	885.177612	3071.953125	1319.802124	19.875134
292.772156	889.728638	2912.666504	1256.087524	18.110239
293.145905	871.524475	2807.992676	1287.944824	21.504114
293.519592	821.463013	2726.073975	1344.832764	27.479090
293.893280	871.524475	2924.044189	1253.812012	18.625278
294.266907	878.351013	2880.809326	1287.944824	20.454550
294.640533	857.871338	2994.585449	1258.363037	18.743345
295.014069	928.412476	3210.759766	1406.271851	20.937191
295.387604	860.146851	3283.576416	1378.965576	21.408449
295.761078	932.963501	3345.015625	1429.027100	20.566038
296.134552	903.381775	3363.219727	1417.649414	20.906567
296.507996	869.248962	3360.944336	1303.873413	17.442921
296.881378	921.585938	3504.302002	1388.067749	18.061676
297.254730	903.381775	3549.812500	1401.720825	18.830610
297.628021	894.279663	3863.834229	1558.731689	22.375477
298.001282	942.065613	3868.385254	1538.252075	20.373253
298.374573	942.065613	3813.772949	1595.140137	22.741682
298.747803	939.790100	3745.507324	1460.884399	18.572588
299.121002	880.626526	3581.669678	1510.945801	23.336142
299.494141	967.096313	3335.913574	1431.302612	19.596542
299.867188	928.412476	3281.301025	1556.456177	26.692453
300.240265	942.065613	3304.056152	1499.568237	23.603085
300.613312	894.279663	3092.432861	1390.343262	22.567287
300.986328	937.514587	3124.290039	1365.312500	19.562956
301.359314	910.208313	3249.443604	1281.118164	15.856030
301.732239	887.453125	3115.187988	1331.179688	19.918283
302.105103	896.555176	3217.586426	1388.067749	21.176474
302.477997	932.963501	3140.218750	1338.006226	18.350515
302.850830	919.310425	3122.014648	1397.169800	21.694216
303.223602	917.034912	2976.381104	1328.904175	20.000002
303.596375	905.657288	2930.870850	1292.495850	19.101124
303.969116	887.453125	2894.462402	1353.934937	23.242634
304.341766	930.687988	2873.982666	1219.679199	14.871199
304.714478	866.973450	2933.146240	1344.832764	23.127750
305.087067	857.871338	2860.329590	1383.516602	26.249998
305.459656	841.942688	3026.442627	1383.516602	24.791664
305.832214	928.412476	2878.533936	1351.659302	21.703613
306.204681	964.820801	2962.728027	1372.139038	20.387245
306.577148	919.310425	2876.258301	1360.761475	22.558140
306.949646	892.004150	2949.074951	1363.036987	22.898232
307.322021	935.239075	2914.942139	1372.139038	22.068964
307.694397	876.075500	2903.564453	1276.567139	19.753086
308.066742	869.248962	2896.738037	1397.169800	26.038160
308.439026	903.381775	2930.870850	1385.792114	23.793488
308.811279	951.167725	3008.238525	1326.628662	18.252213
309.183502	898.830688	3188.004639	1413.098389	22.465210
309.555695	919.310425	3240.341553	1322.077637	17.352942
309.927887	935.239075	3308.607178	1363.036987	18.024929
310.299988	887.453125	3217.586426	1399.445313	21.972656
310.672058	882.902100	3258.545898	1369.863525	20.498083
311.044128	939.790100	3397.352539	1388.067749	18.240742
311.416168	853.320313	3420.107666	1356.210449	19.592201
311.788147	944.341125	3358.668701	1422.200562	19.792650
312.160065	930.687988	3306.331787	1499.568237	23.946362
312.531982	905.657288	3399.628174	1419.924927	20.620434
312.903870	957.994263	3372.321777	1347.108276	16.116869
313.275696	910.208313	3151.596191	1308.424438	17.766497
313.647491	907.932800	3299.505127	1319.802124	17.221697
314.019318	942.065613	3076.504150	1392.618774	21.108744
314.391022	955.718750	3151.596191	1392.618774	19.896376
314.762726	855.595825	3201.657715	1431.302612	24.539282
315.134369	800.983337	3231.239502	1447.231201	26.591761
315.505981	914.759338	3449.689453	1408.547363	19.479355
315.877594	955.718750	3488.373291	1438.129150	19.047619
316.249146	914.759338	3326.811523	1367.588013	18.773584
316.620636	948.892151	3240.341553	1381.241089	18.867924
316.992157	919.310425	3096.983887	1363.036987	20.376177
317.363586	878.351013	2978.656738	1308.424438	20.476706
317.735016	919.310425	2999.136475	1244.709839	15.645510
318.106354	905.657288	2990.034424	1190.097412	13.646289
318.477722	878.351013	2955.901611	1328.904175	21.686749
318.849060	955.718750	3062.851074	1303.873413	16.522676
319.220306	841.942688	3019.616211	1394.894287	25.391850
319.591522	921.585938	3094.708252	1317.526489	18.219893
319.962738	1001.229126	3142.494141	1283.393677	13.177469
320.333923	857.871338	3253.994629	1356.210449	20.797724
320.705017	980.749451	3156.147461	1347.108276	16.841003
321.076111	962.545288	3117.463379	1358.485962	18.373817
321.447144	882.902100	3122.014648	1317.526489	19.410564
321.818176	885.177612	2844.401123	1344.832764	23.461088
322.189178	816.911987	2892.187012	1290.220337	22.807020
