Jaz Data File
++++++++++++++++++++++++++++++++++++
Date: Wed Feb 07 06:54:49 2024
User: jaz
Dark Spectrum Present: Yes
Reference Spectrum Present: Yes
Processed Spectrum Present: Yes
Spectrometers: JAZA3692
Integration Time (usec): 43800 (JAZA3692)
Spectra Averaged: 1 (JAZA3692)
Boxcar Smoothing: 0 (JAZA3692)
Correct for Electrical Dark: No (JAZA3692)
Strobe/Lamp Enabled: Yes (JAZA3692)
Correct for Detector Non-linearity: No (JAZA3692)
Correct for Stray Light: No (JAZA3692)
Number of Pixels in Processed Spectrum: 2048
>>>>>Begin Processed Spectral Data<<<<<
W	D	R	S	P
190.244385	0.000000	0.000000	0.000000	0.000000
190.627136	0.000000	0.000000	0.000000	0.000000
191.009842	892.004150	873.799988	812.360901	437.500214
191.392532	855.595825	892.004150	837.391663	-50.000000
191.775177	960.269775	844.218201	926.136963	29.411762
192.157791	967.096313	969.371887	866.973450	-4399.895508
192.540390	892.004150	894.279663	917.034912	1100.005371
192.922943	939.790100	935.239075	889.728638	1100.004028
193.305481	980.749451	928.412476	962.545288	34.782604
193.687958	917.034912	937.514587	905.657288	-55.555687
194.070419	967.096313	905.657288	898.830688	111.111176
194.452866	948.892151	935.239075	923.861450	183.333786
194.835251	932.963501	985.300537	885.177612	-91.304153
195.217621	917.034912	907.932800	914.759338	25.000504
195.599960	962.545288	939.790100	969.371887	-30.000187
195.982254	932.963501	944.341125	894.279663	-339.999237
196.364517	973.922913	955.718750	951.167725	124.999916
196.746750	967.096313	976.198425	905.657288	-674.997498
197.128952	967.096313	892.004150	951.167725	21.212051
197.511139	864.697876	919.310425	919.310425	100.000000
197.893280	962.545288	889.728638	901.106262	84.374969
198.275391	953.443237	907.932800	951.167725	4.999980
198.657471	903.381775	937.514587	1035.361938	386.666534
199.039520	948.892151	935.239075	1003.504700	-400.001801
199.421539	917.034912	998.953613	957.994263	50.000000
199.803513	951.167725	973.922913	855.595825	-420.000488
200.185471	953.443237	983.024963	919.310425	-115.384789
200.567383	967.096313	985.300537	957.994263	-49.999664
200.949265	951.167725	1010.331238	951.167725	0.000000
201.331131	898.830688	964.820801	926.136963	41.379341
201.712967	923.861450	898.830688	914.759338	36.363705
202.094742	903.381775	942.065613	876.075500	-70.588326
202.476517	944.341125	887.453125	937.514587	11.999961
202.858231	976.198425	973.922913	914.759338	2700.010742
203.239944	1044.463989	903.381775	887.453125	111.290329
203.621582	937.514587	1030.810913	962.545288	26.829247
204.003235	953.443237	955.718750	917.034912	-1600.005371
204.384827	951.167725	932.963501	962.545288	-62.499580
204.766388	969.371887	903.381775	964.820801	6.896619
205.147934	873.799988	901.106262	935.239075	224.999893
205.529449	923.861450	910.208313	860.146851	466.666382
205.910904	910.208313	955.718750	946.616638	79.999947
206.292343	903.381775	978.473938	937.514587	45.454559
206.673767	885.177612	907.932800	953.443237	300.000275
207.055115	871.524475	985.300537	866.973450	-3.999985
207.436462	948.892151	896.555176	955.718750	-13.043550
207.817780	955.718750	917.034912	935.239075	52.941166
208.199051	853.320313	910.208313	876.075500	39.999977
208.580307	832.840637	976.198425	873.799988	28.571417
208.961517	903.381775	957.994263	878.351013	-45.833405
209.342712	905.657288	905.657288	960.269775	0.000000
209.723846	955.718750	969.371887	910.208313	-333.333191
210.104965	969.371887	957.994263	848.769287	1059.998047
210.486069	914.759338	946.616638	923.861450	28.571510
210.867111	912.483826	962.545288	923.861450	22.727312
211.248123	905.657288	885.177612	985.300537	-388.889221
211.629120	926.136963	917.034912	923.861450	25.000000
212.010071	873.799988	971.647400	907.932800	34.883717
212.390991	857.871338	946.616638	942.065613	94.871811
212.771881	946.616638	937.514587	937.514587	100.000000
213.152756	876.075500	973.922913	871.524475	-4.651145
213.533569	864.697876	930.687988	928.412476	96.551735
213.914368	876.075500	951.167725	964.820801	118.181747
214.295135	903.381775	896.555176	980.749451	-1133.326782
214.675858	923.861450	967.096313	964.820801	94.736855
215.056549	866.973450	901.106262	892.004150	73.333252
215.437225	832.840637	907.932800	935.239075	136.363678
215.817841	910.208313	932.963501	855.595825	-240.000168
216.198441	973.922913	855.595825	942.065613	26.923082
216.579025	880.626526	932.963501	878.351013	-4.347811
216.959549	942.065613	878.351013	830.565063	175.000000
217.340057	932.963501	1003.504700	946.616638	19.354841
217.720535	889.728638	860.146851	892.004150	-7.692276
218.100967	953.443237	923.861450	914.759338	130.769318
218.481369	939.790100	948.892151	923.861450	-175.000671
218.861740	910.208313	939.790100	928.412476	61.538414
219.242065	912.483826	944.341125	932.963501	64.285660
219.622391	869.248962	935.239075	937.514587	103.448265
220.002670	896.555176	896.555176	860.146851	0.000000
220.382919	926.136963	928.412476	930.687988	200.000000
220.763123	944.341125	937.514587	969.371887	-366.668457
221.143295	873.799988	973.922913	948.892151	74.999969
221.523453	921.585938	928.412476	866.973450	-800.002686
221.903549	848.769287	942.065613	892.004150	46.341442
222.283630	892.004150	926.136963	912.483826	59.999966
222.663696	932.963501	1001.229126	957.994263	36.666714
223.043701	980.749451	939.790100	921.585938	144.444458
223.423676	862.422363	930.687988	903.381775	60.000053
223.803635	944.341125	946.616638	885.177612	-2600.008057
224.183548	980.749451	955.718750	930.687988	200.000244
224.563431	935.239075	1012.606750	942.065613	8.823502
224.943283	946.616638	987.576050	873.799988	-177.777573
225.323105	951.167725	960.269775	905.657288	-500.002014
225.702881	901.106262	898.830688	887.453125	599.986572
226.082642	853.320313	903.381775	932.963501	159.090820
226.462357	905.657288	1046.739624	932.963501	19.354807
226.842041	907.932800	1055.841675	930.687988	15.384600
227.221695	857.871338	980.749451	882.902100	20.370399
227.601318	935.239075	978.473938	882.902100	-121.052711
227.980911	921.585938	1028.535400	901.106262	-19.148928
228.360474	917.034912	939.790100	932.963501	69.999809
228.739990	905.657288	957.994263	951.167725	86.956566
229.119476	946.616638	1042.188477	901.106262	-47.619022
229.498932	971.647400	1119.556274	976.198425	3.076912
229.878372	871.524475	1171.893188	928.412476	18.939390
230.257736	928.412476	1171.893188	903.381775	-10.280363
230.637115	855.595825	1112.729614	894.279663	15.044246
231.016449	946.616638	1158.240112	953.443237	3.225823
231.395737	853.320313	1115.005249	901.106262	18.260872
231.774994	912.483826	1083.147949	866.973450	-26.666634
232.154221	921.585938	1183.270874	896.555176	-9.565228
232.533417	894.279663	1051.290649	932.963501	24.637663
232.912582	926.136963	1037.637451	857.871338	-61.224506
233.291702	821.463013	1030.810913	1005.780212	88.043488
233.670792	910.208313	1049.015137	889.728638	-14.754084
234.049866	926.136963	1058.117188	851.044800	-56.896526
234.428894	853.320313	1074.045776	885.177612	14.432997
234.807892	932.963501	1089.974487	896.555176	-23.188393
235.186874	880.626526	1135.484863	887.453125	2.678586
235.565781	989.851563	1046.739624	903.381775	-151.999878
235.944687	957.994263	1103.627563	903.381775	-37.500000
236.323547	917.034912	1105.903076	921.585938	2.409631
236.702377	960.269775	1039.912964	989.851563	37.142895
237.081177	873.799988	1101.352051	898.830688	10.999989
237.459946	869.248962	1178.719727	892.004150	7.352936
237.838669	969.371887	1149.138062	962.545288	-3.797488
238.217361	955.718750	1140.035889	919.310425	-19.753088
238.596039	953.443237	1083.147949	951.167725	-1.754379
238.974670	937.514587	1133.209351	901.106262	-18.604650
239.353271	901.106262	1126.382813	957.994263	25.252518
239.731842	930.687988	1169.617676	921.585938	-3.809510
240.110367	901.106262	1158.240112	946.616638	17.699099
240.488876	871.524475	1167.342163	901.106262	10.000006
240.867340	896.555176	1235.607788	951.167725	16.107397
241.245789	894.279663	1119.556274	907.932800	6.060610
241.624176	910.208313	1233.332275	980.749451	21.830982
242.002548	955.718750	1319.802124	967.096313	3.124989
242.380890	882.902100	1308.424438	855.595825	-6.417119
242.759186	907.932800	1454.057739	880.626526	-5.000005
243.137451	894.279663	1481.364014	914.759338	3.488370
243.515686	917.034912	1556.456177	971.647400	8.540925
243.893890	885.177612	1658.854614	976.198425	11.764705
244.272049	948.892151	1479.088501	976.198425	5.150219
244.650192	926.136963	1567.833862	1033.086426	16.666664
245.028290	844.218201	1415.373901	978.473938	23.505980
245.406357	901.106262	1369.863525	957.994263	12.135919
245.784393	907.932800	1372.139038	901.106262	-1.470583
246.162384	928.412476	1365.312500	946.616638	4.166666
246.540359	919.310425	1454.057739	976.198425	10.638296
246.918289	901.106262	1636.099487	983.024963	11.145504
247.296204	894.279663	1656.579102	976.198425	10.746271
247.674057	926.136963	1952.396851	1026.259888	9.756099
248.051895	844.218201	2207.255127	1130.933838	21.035061
248.429703	914.759338	2129.887451	1076.321289	13.295877
248.807465	942.065613	2079.825928	1069.494751	11.199999
249.185196	835.116150	2002.458252	960.269775	10.721247
249.562897	917.034912	1781.732788	1001.229126	9.736836
249.940567	921.585938	1695.262939	1074.045776	19.705877
250.318192	919.310425	1595.140137	969.371887	7.407408
250.695801	901.106262	1567.833862	1026.259888	18.771328
251.073349	885.177612	1522.323364	1012.606750	19.999998
251.450882	937.514587	1495.017212	946.616638	1.632647
251.828400	937.514587	1469.986450	930.687988	-1.282058
252.205872	935.239075	1510.945801	989.851563	9.486165
252.583313	907.932800	1599.691162	962.545288	7.894735
252.960693	896.555176	1590.588989	942.065613	6.557380
253.338074	812.360901	1604.242188	951.167725	17.528742
253.715408	848.769287	1677.058838	1030.810913	21.978018
254.092682	944.341125	1615.619751	983.024963	5.762710
254.469955	903.381775	1504.119263	978.473938	12.499996
254.847198	848.769287	1456.333252	1012.606750	26.966290
255.224365	887.453125	1449.506714	1001.229126	20.242910
255.601563	869.248962	1415.373901	1023.984375	28.333336
255.978683	960.269775	1424.476074	976.198425	3.431373
256.355743	814.636475	1458.608887	1030.810913	33.568897
256.732819	962.545288	1410.822876	987.576050	5.583764
257.109894	951.167725	1454.057739	992.127075	8.144793
257.486877	914.759338	1451.782227	951.167725	6.779671
257.863831	930.687988	1583.762451	1053.566162	18.815338
258.240753	901.106262	1670.232300	1001.229126	13.017745
258.617645	898.830688	1663.405762	1051.290649	19.940483
258.994507	914.759338	1795.385864	1067.219238	17.312662
259.371307	923.861450	1947.845825	1108.178589	17.999994
259.748108	1019.433350	1929.641602	1083.147949	7.000002
260.124878	896.555176	2145.816162	1099.076538	16.211294
260.501617	946.616638	2327.857666	1108.178589	11.696869
260.878296	912.483826	2685.114502	1151.413574	13.478824
261.254944	887.453125	2778.410889	1151.413574	13.959087
261.631561	912.483826	2569.062988	1121.831787	12.637366
262.008179	914.759338	2264.143311	1112.729614	14.671159
262.384735	907.932800	2154.918213	1010.331238	8.211679
262.761261	937.514587	1997.907227	1074.045776	12.875532
263.137695	901.106262	1881.855713	1042.188477	14.385143
263.514191	855.595825	1815.865601	1026.259888	17.772512
263.890594	912.483826	1745.324463	1051.290649	16.666674
264.267029	962.545288	1795.385864	1039.912964	9.289614
264.643341	880.626526	1672.507813	971.647400	11.494258
265.019653	885.177612	1758.977539	1010.331238	14.322915
265.395935	857.871338	1763.528564	1014.882263	17.336683
265.772217	935.239075	1740.773438	1049.015137	14.124296
266.148407	917.034912	1779.457275	1017.157776	11.609493
266.524597	928.412476	1818.141113	998.953613	7.928388
266.900726	928.412476	1849.998413	1062.668213	14.567903
267.276855	896.555176	1929.641602	976.198425	7.709253
267.652924	944.341125	1991.080688	1055.841675	10.652178
268.028992	976.198425	2027.489014	1085.423462	10.389615
268.404999	1003.504700	2032.040039	1110.454102	10.398223
268.781006	914.759338	2034.315552	985.300537	6.300818
269.156921	919.310425	2011.560425	1037.637451	10.833328
269.532837	928.412476	2000.182739	1028.535400	9.341827
269.908661	921.585938	1991.080688	1001.229126	7.446805
270.284546	923.861450	2009.284912	1094.525513	15.723270
270.660339	919.310425	2050.244141	1064.943726	12.877262
271.036133	905.657288	2068.448486	996.678101	7.827786
271.411835	892.004150	2063.897461	1115.005249	19.029129
271.787537	869.248962	2266.418701	1046.739624	12.703587
272.163239	894.279663	2571.338623	1105.903076	12.618722
272.538849	960.269775	2598.644775	1101.352051	8.611110
272.914459	960.269775	2453.011475	1192.372925	15.548781
273.290070	905.657288	2430.256104	1010.331238	6.865672
273.665588	866.973450	2387.021240	1078.596802	13.922151
274.041046	932.963501	2323.306641	1069.494751	9.819968
274.416565	889.728638	2325.582275	1128.658325	16.640253
274.791962	951.167725	2216.357178	987.576050	2.877697
275.167389	889.728638	2264.143311	1067.219238	12.913905
275.542755	928.412476	2136.714111	1053.566162	10.357819
275.918060	971.647400	2179.948975	1042.188477	5.838036
276.293365	939.790100	2179.948975	1085.423462	11.743121
276.668640	917.034912	2220.908203	1046.739624	9.947647
277.043854	942.065613	2341.510986	1064.943726	8.780487
277.419037	944.341125	2323.306641	1099.076538	11.221122
277.794189	914.759338	2291.449463	1080.872437	12.066120
278.169312	860.146851	2330.133301	1119.556274	17.647062
278.544373	910.208313	2261.867676	1046.739624	10.101014
278.919464	892.004150	2236.836914	980.749451	6.598984
279.294464	896.555176	2318.755615	1064.943726	11.840001
279.669464	862.422363	2236.836914	1140.035889	20.198675
280.044403	889.728638	2239.112549	1089.974487	14.839798
280.419312	926.136963	2302.827148	1044.463989	8.595037
280.794189	896.555176	2380.194824	1044.463989	9.969322
281.169037	896.555176	2366.541748	1037.637451	9.597522
281.543854	953.443237	2566.787354	1099.076538	9.026797
281.918671	885.177612	2603.195801	1092.250000	12.052979
282.293365	951.167725	2701.043213	1103.627563	8.712610
282.668091	980.749451	2746.553711	1092.250000	6.314435
283.042786	917.034912	2960.452637	1119.556274	9.910913
283.417419	857.871338	2892.187012	1117.280762	12.751680
283.792053	889.728638	2842.125488	1094.525513	10.489511
284.166595	905.657288	2682.839111	1137.760376	13.060176
284.541138	919.310425	2664.634766	1094.525513	10.039113
284.915619	919.310425	2594.093750	1142.311401	13.315213
285.290100	898.830688	2687.390137	1087.698975	10.559799
285.664520	880.626526	2776.135498	1206.026001	17.166864
286.038940	805.534363	2862.605225	1174.168701	17.920353
286.413300	876.075500	2846.676514	1151.413574	13.972289
286.787628	887.453125	2935.421875	1226.505737	16.555555
287.161896	889.728638	3147.045166	1210.577026	14.213709
287.536194	835.116150	3108.361328	1310.699951	20.920921
287.910400	901.106262	3005.962891	1171.893188	12.864862
288.284607	869.248962	2869.431641	1192.372925	16.154722
288.658752	921.585938	2812.543701	1206.026001	15.042116
289.032867	951.167725	2662.359375	1206.026001	14.893614
289.406921	946.616638	2851.227539	1169.617676	11.708483
289.781006	957.994263	2778.410889	1210.577026	13.874998
290.154999	889.728638	2792.063965	1203.750488	16.507177
290.529022	898.830688	2883.084961	1290.220337	19.724773
290.902954	928.412476	3165.249512	1294.771362	16.378435
291.276825	930.687988	3192.555664	1363.036987	19.114691
291.650757	930.687988	3044.646729	1342.557251	19.483316
292.024597	928.412476	3081.055176	1358.485962	19.978863
292.398407	885.177612	3071.953125	1424.476074	24.661814
292.772156	889.728638	2912.666504	1303.873413	20.472443
293.145905	871.524475	2807.992676	1256.087524	19.858990
293.519592	821.463013	2726.073975	1319.802124	26.164877
293.893280	871.524475	2924.044189	1333.455200	22.505543
294.266907	878.351013	2880.809326	1360.761475	24.090912
294.640533	857.871338	2994.585449	1388.067749	24.813633
295.014069	928.412476	3210.759766	1413.098389	21.236292
295.387604	860.146851	3283.576416	1474.537476	25.352112
295.761078	932.963501	3345.015625	1440.404663	21.037735
296.134552	903.381775	3363.219727	1549.629639	26.271969
296.507996	869.248962	3360.944336	1522.323364	26.210043
296.881378	921.585938	3504.302002	1419.924927	19.295153
297.254730	903.381775	3549.812500	1510.945801	22.957867
297.628021	894.279663	3863.834229	1535.976563	21.609196
298.001282	942.065613	3868.385254	1545.078613	20.606533
298.374573	942.065613	3813.772949	1563.282837	21.632332
298.747803	939.790100	3745.507324	1558.731689	22.060013
299.121002	880.626526	3581.669678	1501.843750	22.999159
299.494141	967.096313	3335.913574	1510.945801	22.958693
299.867188	928.412476	3281.301025	1451.782227	22.243711
300.240265	942.065613	3304.056152	1474.537476	22.543354
300.613312	894.279663	3092.432861	1376.690063	21.946167
300.986328	937.514587	3124.290039	1403.996338	21.331945
301.359314	910.208313	3249.443604	1401.720825	21.011675
301.732239	887.453125	3115.187988	1463.159912	25.842697
302.105103	896.555176	3217.586426	1433.578125	23.137257
302.477997	932.963501	3140.218750	1374.414551	19.999998
302.850830	919.310425	3122.014648	1374.414551	20.661156
303.223602	917.034912	2976.381104	1440.404663	25.414364
303.596375	905.657288	2930.870850	1454.057739	27.078648
303.969116	887.453125	2894.462402	1338.006226	22.448980
304.341766	930.687988	2873.982666	1342.557251	21.194380
304.714478	866.973450	2933.146240	1301.597900	21.035242
305.087067	857.871338	2860.329590	1360.761475	25.113640
305.459656	841.942688	3026.442627	1383.516602	24.791664
305.832214	928.412476	2878.533936	1358.485962	22.053677
306.204681	964.820801	2962.728027	1344.832764	19.020500
306.577148	919.310425	2876.258301	1394.894287	24.302326
306.949646	892.004150	2949.074951	1331.179688	21.349558
307.322021	935.239075	2914.942139	1335.730713	20.229883
307.694397	876.075500	2903.564453	1381.241089	24.915823
308.066742	869.248962	2896.738037	1349.383789	23.681253
308.439026	903.381775	2930.870850	1392.618774	24.130192
308.811279	951.167725	3008.238525	1381.241089	20.907076
309.183502	898.830688	3188.004639	1403.996338	22.067596
309.555695	919.310425	3240.341553	1463.159912	23.431374
309.927887	935.239075	3308.607178	1383.516602	18.887821
310.299988	887.453125	3217.586426	1424.476074	23.046877
310.672058	882.902100	3258.545898	1422.200562	22.701151
311.044128	939.790100	3397.352539	1413.098389	19.259258
311.416168	853.320313	3420.107666	1442.680176	22.960993
311.788147	944.341125	3358.668701	1449.506714	20.923655
312.160065	930.687988	3306.331787	1479.088501	23.084290
312.531982	905.657288	3399.628174	1369.863525	18.613138
312.903870	957.994263	3372.321777	1433.578125	19.698399
313.275696	910.208313	3151.596191	1365.312500	20.304569
313.647491	907.932800	3299.505127	1392.618774	20.266415
314.019318	942.065613	3076.504150	1381.241089	20.575691
314.391022	955.718750	3151.596191	1312.975464	16.269428
314.762726	855.595825	3201.657715	1442.680176	25.024246
315.134369	800.983337	3231.239502	1410.822876	25.093632
315.505981	914.759338	3449.689453	1365.312500	17.773790
315.877594	955.718750	3488.373291	1410.822876	17.969452
316.249146	914.759338	3326.811523	1378.965576	19.245281
316.620636	948.892151	3240.341553	1378.965576	18.768620
316.992157	919.310425	3096.983887	1403.996338	22.257053
317.363586	878.351013	2978.656738	1312.975464	20.693390
317.735016	919.310425	2999.136475	1306.148926	18.599560
318.106354	905.657288	2990.034424	1344.832764	21.069866
318.477722	878.351013	2955.901611	1287.944824	19.715227
318.849060	955.718750	3062.851074	1301.597900	16.414686
319.220306	841.942688	3019.616211	1333.455200	22.570532
319.591522	921.585938	3094.708252	1342.557251	19.371727
319.962738	1001.229126	3142.494141	1397.169800	18.490969
320.333923	857.871338	3253.994629	1331.179688	19.753088
320.705017	980.749451	3156.147461	1358.485962	17.364019
321.076111	962.545288	3117.463379	1390.343262	19.852169
321.447144	882.902100	3122.014648	1310.699951	19.105688
321.818176	885.177612	2844.401123	1358.485962	24.157955
322.189178	816.911987	2892.187012	1306.148926	23.574560
