Jaz Data File
++++++++++++++++++++++++++++++++++++
Date: Wed Feb 07 06:36:41 2024
User: jaz
Dark Spectrum Present: Yes
Reference Spectrum Present: Yes
Processed Spectrum Present: Yes
Spectrometers: JAZA3692
Integration Time (usec): 40000 (JAZA3692)
Spectra Averaged: 1 (JAZA3692)
Boxcar Smoothing: 0 (JAZA3692)
Correct for Electrical Dark: No (JAZA3692)
Strobe/Lamp Enabled: Yes (JAZA3692)
Correct for Detector Non-linearity: No (JAZA3692)
Correct for Stray Light: No (JAZA3692)
Number of Pixels in Processed Spectrum: 2048
>>>>>Begin Processed Spectral Data<<<<<
W	D	R	S	P
190.244385	0.000000	0.000000	0.000000	0.000000
190.627136	0.000000	0.000000	0.000000	0.000000
191.009842	1221.954712	1244.709839	1283.393677	270.000549
191.392532	1335.730713	1244.709839	1212.852539	135.000000
191.775177	1317.526489	1301.597900	1256.087524	385.715057
192.157791	1219.679199	1292.495850	1260.638550	56.249981
192.540390	1322.077637	1281.118164	1267.465088	133.333130
192.922943	1274.291626	1312.975464	1269.740601	-11.764668
193.305481	1333.455200	1312.975464	1294.771362	188.888351
193.687958	1281.118164	1272.016113	1276.567139	50.000000
194.070419	1290.220337	1285.669312	1347.108276	-1250.002686
194.452866	1244.709839	1265.189575	1276.567139	155.555222
194.835251	1290.220337	1306.148926	1356.210449	414.287262
195.217621	1299.322388	1349.383789	1301.597900	4.545444
195.599960	1312.975464	1301.597900	1324.353149	-100.001076
195.982254	1297.046875	1297.046875	1306.148926	0.000000
196.364517	1297.046875	1310.699951	1374.414551	566.668457
196.746750	1326.628662	1365.312500	1342.557251	41.176342
197.128952	1290.220337	1353.934937	1328.904175	60.714245
197.511139	1328.904175	1326.628662	1333.455200	-200.000000
197.893280	1331.179688	1335.730713	1322.077637	-200.000000
198.275391	1310.699951	1312.975464	1317.526489	300.000000
198.657471	1276.567139	1297.046875	1301.597900	122.222092
199.039520	1244.709839	1349.383789	1249.260864	4.347811
199.421539	1347.108276	1331.179688	1278.842651	428.572968
199.803513	1256.087524	1285.669312	1322.077637	223.076828
200.185471	1253.812012	1358.485962	1208.301514	-43.478340
200.567383	1335.730713	1272.016113	1276.567139	92.857170
200.949265	1283.393677	1287.944824	1242.434326	-899.978516
201.331131	1326.628662	1335.730713	1292.495850	-375.001343
201.712967	1299.322388	1315.250977	1249.260864	-314.287262
202.094742	1235.607788	1308.424438	1294.771362	81.250061
202.476517	1233.332275	1278.842651	1283.393677	109.999969
202.858231	1258.363037	1281.118164	1228.781250	-130.000534
203.239944	1301.597900	1292.495850	1244.709839	625.002686
203.621582	1256.087524	1328.904175	1258.363037	3.124990
204.003235	1363.036987	1285.669312	1333.455200	38.235332
204.384827	1276.567139	1292.495850	1290.220337	85.714394
204.766388	1281.118164	1274.291626	1233.332275	700.001770
205.147934	1301.597900	1292.495850	1299.322388	25.000000
205.529449	1403.996338	1312.975464	1319.802124	92.499893
205.910904	1283.393677	1258.363037	1297.046875	-54.545940
206.292343	1210.577026	1322.077637	1319.802124	97.959190
206.673767	1308.424438	1281.118164	1294.771362	49.999775
207.055115	1242.434326	1372.139038	1276.567139	26.315784
207.436462	1328.904175	1326.628662	1276.567139	2300.010742
207.817780	1303.873413	1399.445313	1294.771362	-9.523773
208.199051	1251.536499	1328.904175	1301.597900	64.705833
208.580307	1242.434326	1390.343262	1301.597900	40.000000
208.961517	1267.465088	1306.148926	1324.353149	147.058990
209.342712	1292.495850	1312.975464	1237.883301	-266.667847
209.723846	1242.434326	1221.954712	1267.465088	-122.222816
210.104965	1322.077637	1285.669312	1267.465088	150.000168
210.486069	1267.465088	1306.148926	1360.761475	241.176651
210.867111	1281.118164	1226.505737	1299.322388	-33.333481
211.248123	1301.597900	1299.322388	1340.281738	-1700.005371
211.629120	1322.077637	1319.802124	1344.832764	-1000.000000
212.010071	1274.291626	1338.006226	1390.343262	182.142929
212.390991	1262.914063	1283.393677	1272.016113	44.444443
212.771881	1294.771362	1351.659302	1262.914063	-56.000095
213.152756	1319.802124	1374.414551	1233.332275	-158.333649
213.533569	1306.148926	1333.455200	1276.567139	-108.333298
213.914368	1226.505737	1369.863525	1269.740601	30.158712
214.295135	1267.465088	1317.526489	1287.944824	40.909233
214.675858	1249.260864	1365.312500	1328.904175	68.627480
215.056549	1322.077637	1328.904175	1215.128052	-1566.673828
215.437225	1285.669312	1299.322388	1326.628662	300.000885
215.817841	1276.567139	1360.761475	1290.220337	16.216291
216.198441	1358.485962	1340.281738	1301.597900	312.499237
216.579025	1353.934937	1385.792114	1183.270874	-535.716187
216.959549	1299.322388	1292.495850	1297.046875	33.333332
217.340057	1278.842651	1344.832764	1201.474976	-117.241318
217.720535	1301.597900	1347.108276	1251.536499	-109.999969
218.100967	1294.771362	1301.597900	1281.118164	-200.001785
218.481369	1317.526489	1335.730713	1287.944824	-162.498917
218.861740	1344.832764	1292.495850	1317.526489	52.174026
219.242065	1256.087524	1228.781250	1356.210449	-366.666382
219.622391	1256.087524	1303.873413	1262.914063	14.285678
220.002670	1274.291626	1317.526489	1237.883301	-84.210571
220.382919	1344.832764	1228.781250	1312.975464	27.450998
220.763123	1308.424438	1322.077637	1276.567139	-233.332138
221.143295	1356.210449	1322.077637	1256.087524	293.333344
221.523453	1269.740601	1340.281738	1258.363037	-16.128977
221.903549	1251.536499	1356.210449	1240.158813	-10.869644
222.283630	1297.046875	1333.455200	1301.597900	12.499958
222.663696	1317.526489	1319.802124	1276.567139	-1799.908813
223.043701	1206.026001	1333.455200	1242.434326	28.571415
223.423676	1224.230225	1378.965576	1292.495850	44.117664
223.803635	1244.709839	1347.108276	1272.016113	26.666691
224.183548	1260.638550	1285.669312	1269.740601	36.363461
224.563431	1260.638550	1283.393677	1240.158813	-90.000534
224.943283	1322.077637	1335.730713	1249.260864	-533.335999
225.323105	1246.985352	1353.934937	1297.046875	46.808525
225.702881	1260.638550	1308.424438	1206.026001	-114.285934
226.082642	1242.434326	1265.189575	1287.944824	200.000000
226.462357	1365.312500	1383.516602	1315.250977	-275.001343
226.842041	1219.679199	1369.863525	1315.250977	63.636318
227.221695	1319.802124	1315.250977	1319.802124	-0.000000
227.601318	1306.148926	1406.271851	1281.118164	-25.000031
227.980911	1276.567139	1463.159912	1301.597900	13.414647
228.360474	1287.944824	1383.516602	1292.495850	4.761893
228.739990	1283.393677	1440.404663	1258.363037	-15.941967
229.119476	1285.669312	1408.547363	1344.832764	48.148106
229.498932	1283.393677	1424.476074	1331.179688	33.870995
229.878372	1299.322388	1504.119263	1212.852539	-42.222252
230.257736	1262.914063	1515.496826	1331.179688	27.027033
230.637115	1174.168701	1572.384888	1317.526489	35.999989
231.016449	1242.434326	1454.057739	1376.690063	63.440872
231.395737	1267.465088	1542.803101	1274.291626	2.479330
231.774994	1269.740601	1442.680176	1262.914063	-3.947355
232.154221	1276.567139	1476.812988	1338.006226	30.681828
232.533417	1231.056763	1451.782227	1301.597900	31.958767
232.912582	1265.189575	1419.924927	1290.220337	16.176498
233.291702	1299.322388	1392.618774	1256.087524	-46.341412
233.670792	1276.567139	1447.231201	1303.873413	16.000015
234.049866	1251.536499	1444.955688	1269.740601	9.411735
234.428894	1349.383789	1417.649414	1312.975464	-53.333321
234.807892	1292.495850	1410.822876	1272.016113	-17.307741
235.186874	1308.424438	1444.955688	1258.363037	-36.666626
235.565781	1203.750488	1504.119263	1292.495850	29.545469
235.944687	1274.291626	1490.466064	1335.730713	28.421070
236.323547	1333.455200	1501.843750	1294.771362	-22.972961
236.702377	1287.944824	1481.364014	1251.536499	-18.823534
237.081177	1283.393677	1501.843750	1212.852539	-32.291653
237.459946	1269.740601	1515.496826	1237.883301	-12.962968
237.838669	1265.189575	1535.976563	1267.465088	0.840333
238.217361	1206.026001	1565.558350	1276.567139	19.620247
238.596039	1244.709839	1515.496826	1272.016113	10.084043
238.974670	1299.322388	1561.007324	1299.322388	0.000000
239.353271	1297.046875	1488.190552	1262.914063	-17.857149
239.731842	1244.709839	1533.701050	1340.281738	33.070866
240.110367	1308.424438	1488.190552	1312.975464	2.531637
240.488876	1301.597900	1608.793213	1297.046875	-1.481476
240.867340	1356.210449	1590.588989	1306.148926	-21.359261
241.245789	1306.148926	1545.078613	1265.189575	-17.142847
241.624176	1303.873413	1508.670288	1324.353149	10.000024
242.002548	1297.046875	1706.640625	1308.424438	2.777768
242.380890	1351.659302	1758.977539	1369.863525	4.469288
242.759186	1272.016113	1736.222412	1365.312500	20.098043
243.137451	1303.873413	1904.610962	1276.567139	-4.545458
243.515686	1274.291626	1966.049927	1340.281738	9.539475
243.893890	1274.291626	2011.560425	1317.526489	5.864193
244.272049	1210.577026	1981.978638	1374.414551	21.238939
244.650192	1331.179688	1843.171875	1319.802124	-2.222214
245.028290	1308.424438	1827.243164	1356.210449	9.210541
245.406357	1190.097412	1699.814087	1328.904175	27.232141
245.784393	1272.016113	1692.987427	1367.588013	22.702711
246.162384	1308.424438	1756.702026	1322.077637	3.045702
246.540359	1278.842651	1793.110352	1322.077637	8.407097
246.918289	1208.301514	1822.692139	1344.832764	22.222221
247.296204	1338.006226	2052.519775	1363.036987	3.503189
247.674057	1294.771362	2245.938965	1340.281738	4.784685
248.051895	1338.006226	2393.847900	1276.567139	-5.818968
248.429703	1347.108276	2443.909424	1342.557251	-0.414936
248.807465	1278.842651	2473.491211	1449.506714	14.285713
249.185196	1281.118164	2316.480225	1378.965576	9.450550
249.562897	1317.526489	2125.336426	1322.077637	0.563393
249.940567	1358.485962	2098.030273	1331.179688	-3.692311
250.318192	1312.975464	1972.876587	1369.863525	8.620695
250.695801	1317.526489	1986.529663	1344.832764	4.081636
251.073349	1324.353149	1859.100464	1344.832764	3.829774
251.450882	1303.873413	1827.243164	1326.628662	4.347834
251.828400	1276.567139	1879.580200	1265.189575	-1.886786
252.205872	1221.954712	1790.834839	1290.220337	12.000002
252.583313	1269.740601	1900.059814	1283.393677	2.166057
252.960693	1226.505737	1938.743774	1381.241089	21.725229
253.338074	1303.873413	2045.693237	1338.006226	4.601227
253.715408	1287.944824	2077.550537	1328.904175	5.187317
254.092682	1319.802124	1945.570313	1392.618774	11.636362
254.469955	1258.363037	1806.763550	1328.904175	12.863070
254.847198	1231.056763	1779.457275	1353.934937	22.406649
255.224365	1283.393677	1854.549438	1306.148926	3.984071
255.601563	1215.128052	1768.079712	1381.241089	30.041149
255.978683	1338.006226	1834.069824	1356.210449	3.669736
256.355743	1260.638550	1818.141113	1401.720825	25.306122
256.732819	1240.158813	1906.886475	1369.863525	19.453926
257.109894	1301.597900	1829.518677	1333.455200	6.034485
257.486877	1267.465088	1920.539551	1363.036987	14.634151
257.863831	1276.567139	1934.192627	1308.424438	4.844292
258.240753	1326.628662	1943.294800	1233.332275	-15.129157
258.617645	1303.873413	2029.764526	1390.343262	11.912234
258.994507	1251.536499	2118.509766	1388.067749	15.748034
259.371307	1274.291626	2184.500000	1310.699951	3.999999
259.748108	1292.495850	2286.898438	1408.547363	11.670476
260.124878	1212.852539	2493.970703	1403.996338	14.920075
260.501617	1315.250977	2760.206787	1383.516602	4.724409
260.878296	1294.771362	2919.493164	1447.231201	9.383750
261.254944	1301.597900	3056.024414	1444.955688	8.171206
261.631561	1262.914063	2933.146240	1481.364014	13.079017
262.008179	1347.108276	2657.808350	1472.261963	9.548614
262.384735	1290.220337	2484.868652	1431.302612	11.809524
262.761261	1278.842651	2275.520752	1401.720825	12.328773
263.137695	1281.118164	2311.929199	1367.588013	8.388526
263.514191	1206.026001	2141.265137	1358.485962	16.301708
263.890594	1219.679199	2107.132324	1363.036987	16.153843
264.267029	1265.189575	2141.265137	1324.353149	6.753250
264.643341	1251.536499	2145.816162	1356.210449	11.704834
265.019653	1333.455200	2111.683350	1347.108276	1.754380
265.395935	1312.975464	2152.642578	1335.730713	2.710032
265.772217	1256.087524	2045.693237	1315.250977	7.492784
266.148407	1281.118164	2045.693237	1356.210449	9.821441
266.524597	1281.118164	2079.825928	1294.771362	1.709411
266.900726	1237.883301	2286.898438	1378.965576	13.449022
267.276855	1322.077637	2352.888428	1338.006226	1.545249
267.652924	1272.016113	2407.500977	1467.710938	17.234472
268.028992	1351.659302	2346.062012	1397.169800	4.576667
268.404999	1303.873413	2430.256104	1358.485962	4.848490
268.781006	1335.730713	2416.603027	1315.250977	-1.894742
269.156921	1290.220337	2334.684326	1385.792114	9.150318
269.532837	1322.077637	2325.582275	1476.812988	15.419496
269.908661	1233.332275	2409.776611	1338.006226	8.897485
270.284546	1301.597900	2277.796387	1335.730713	3.496503
270.660339	1365.312500	2409.776611	1347.108276	-1.742925
271.036133	1260.638550	2450.735840	1481.364014	18.546843
271.411835	1285.669312	2318.755615	1458.608887	16.740089
271.787537	1256.087524	2594.093750	1401.720825	10.884352
272.163239	1215.128052	2814.819336	1390.343262	10.953064
272.538849	1315.250977	2987.758789	1440.404663	7.482996
272.914459	1299.322388	2912.666504	1353.934937	3.385053
273.290070	1272.016113	2846.676514	1438.129150	10.549134
273.665588	1281.118164	2673.737061	1394.894287	8.169940
274.041046	1285.669312	2714.696289	1342.557251	3.980886
274.416565	1246.985352	2550.858887	1415.373901	12.914485
274.791962	1206.026001	2621.399902	1349.383789	10.128616
275.167389	1319.802124	2544.032227	1419.924927	8.178430
275.542755	1283.393677	2498.521729	1351.659302	5.617978
275.918060	1244.709839	2523.552490	1390.343262	11.387908
276.293365	1281.118164	2459.837891	1351.659302	5.984556
276.668640	1317.526489	2584.991699	1394.894287	6.104136
277.043854	1272.016113	2546.307861	1426.751587	12.142860
277.419037	1260.638550	2687.390137	1378.965576	8.293457
277.794189	1287.944824	2716.971924	1363.036987	5.254776
278.169312	1217.403687	2714.696289	1456.333252	15.957439
278.544373	1294.771362	2682.839111	1456.333252	11.639338
278.919464	1322.077637	2537.205811	1356.210449	2.808989
279.294464	1287.944824	2569.062988	1381.241089	7.282409
279.669464	1237.883301	2619.124512	1342.557251	7.578253
280.044403	1256.087524	2669.185791	1349.383789	6.602249
280.419312	1262.914063	2689.665527	1433.578125	11.961723
280.794189	1276.567139	2710.145264	1365.312500	6.190480
281.169037	1331.179688	2680.563477	1422.200562	6.745366
281.543854	1353.934937	2810.268311	1417.649414	4.374993
281.918671	1228.781250	2851.227539	1419.924927	11.781202
282.293365	1312.975464	2924.044189	1342.557251	1.836159
282.668091	1358.485962	3056.024414	1360.761475	0.134048
283.042786	1353.934937	3147.045166	1454.057739	5.583751
283.417419	1299.322388	3030.993652	1435.853638	7.884363
283.792053	1237.883301	3046.922363	1483.639526	13.584905
284.166595	1283.393677	2905.840088	1401.720825	7.293131
284.541138	1199.199463	2873.982666	1481.364014	16.847826
284.915619	1237.883301	2951.350586	1383.516602	8.499333
285.290100	1308.424438	3012.789551	1417.649414	6.408543
285.664520	1297.046875	3067.402100	1440.404663	8.097685
286.038940	1326.628662	3117.463379	1476.812988	8.386275
286.413300	1269.740601	3112.912354	1442.680176	9.382716
286.787628	1310.699951	3244.892578	1447.231201	7.058824
287.161896	1285.669312	3470.169189	1506.394775	10.104164
287.536194	1240.158813	3360.944336	1481.364014	11.373389
287.910400	1290.220337	3281.301025	1497.292725	10.400000
288.284607	1331.179688	3219.861816	1531.425537	10.602411
288.658752	1303.873413	3096.983887	1449.506714	8.121825
289.032867	1303.873413	2974.105713	1629.272949	19.482292
289.406921	1278.842651	2924.044189	1533.701050	15.491014
289.781006	1269.740601	3046.922363	1629.272949	20.230476
290.154999	1294.771362	3128.841064	1497.292725	11.042185
290.529022	1258.363037	3213.035400	1547.354126	14.784631
290.902954	1308.424438	3272.198975	1597.415649	14.716109
291.276825	1292.495850	3429.209961	1686.160889	18.423851
291.650757	1324.353149	3374.597412	1670.232300	16.870144
292.024597	1369.863525	3447.414063	1677.058838	14.786418
292.398407	1281.118164	3356.393066	1599.691162	15.350882
292.772156	1290.220337	3310.882813	1670.232300	18.806305
293.145905	1240.158813	3206.208740	1649.752563	20.833334
293.519592	1283.393677	3192.555664	1606.517700	16.924913
293.893280	1306.148926	3156.147461	1601.966675	15.990161
294.266907	1310.699951	3297.229736	1554.180664	12.256585
294.640533	1278.842651	3360.944336	1706.640625	20.546452
295.014069	1272.016113	3481.546875	1677.058838	18.331617
295.387604	1317.526489	3615.802490	1699.814087	16.633669
295.761078	1267.465088	3572.567627	1683.885376	18.065153
296.134552	1235.607788	3590.771729	1733.946899	21.159422
296.507996	1251.536499	3593.047363	1720.293701	20.019434
296.881378	1178.719727	3572.567627	1749.875488	23.859318
297.254730	1285.669312	3875.211914	1784.008301	19.244287
297.628021	1262.914063	4068.631104	1834.069824	20.356855
298.001282	1274.291626	4027.671875	1870.478149	21.652893
298.374573	1310.699951	4068.631104	1829.518677	18.811880
298.747803	1253.812012	3993.539063	1824.967651	20.847174
299.121002	1269.740601	3795.568604	1818.141113	21.711712
299.494141	1228.781250	3702.272461	1740.773438	20.699171
299.867188	1221.954712	3645.384277	1718.018188	20.469481
300.240265	1253.812012	3538.434814	1797.661377	23.804777
300.613312	1278.842651	3424.658691	1665.681274	18.027576
300.986328	1283.393677	3401.903564	1697.538574	19.548878
301.359314	1251.536499	3310.882813	1733.946899	23.425415
301.732239	1256.087524	3333.637939	1674.783325	20.153341
302.105103	1253.812012	3413.281250	1652.028076	18.440460
302.477997	1258.363037	3401.903564	1645.201538	18.046707
302.850830	1285.669312	3408.730225	1720.293701	20.471592
303.223602	1285.669312	3272.198975	1649.752563	18.327602
303.596375	1256.087524	3315.433838	1622.446289	17.790052
303.969116	1287.944824	3224.413086	1667.956787	19.623970
304.341766	1294.771362	3283.576416	1722.569214	21.510296
304.714478	1349.383789	3294.954102	1715.742676	18.830412
305.087067	1347.108276	3035.544678	1624.721802	16.442049
305.459656	1246.985352	3192.555664	1667.956787	21.637430
305.832214	1294.771362	3224.413086	1683.885376	20.165091
306.204681	1340.281738	3235.790527	1681.609863	18.007204
306.577148	1303.873413	3233.515137	1672.507813	19.103775
306.949646	1347.108276	3326.811523	1663.405762	15.977015
307.322021	1281.118164	3231.239502	1706.640625	21.820307
307.694397	1287.944824	3162.973877	1667.956787	20.266991
308.066742	1262.914063	3251.719238	1686.160889	21.281462
308.439026	1351.659302	3285.852051	1672.507813	16.588240
308.811279	1310.699951	3404.179199	1677.058838	17.500000
309.183502	1253.812012	3606.700439	1667.956787	17.601547
309.555695	1235.607788	3622.629150	1770.355225	22.402288
309.927887	1215.128052	3608.976074	1756.702026	22.623573
310.299988	1237.883301	3547.536865	1686.160889	19.408867
310.672058	1333.455200	3574.843262	1704.365112	16.548223
311.044128	1219.679199	3684.068115	1747.599976	21.421974
311.416168	1272.016113	3693.170166	1752.151001	19.830828
311.788147	1253.812012	3618.078125	1679.334351	17.998074
312.160065	1187.821899	3715.925537	1727.120239	21.332130
312.531982	1328.904175	3595.322754	1761.253052	19.076303
312.903870	1315.250977	3613.527100	1745.324463	18.712873
313.275696	1301.597900	3449.689453	1731.671387	20.021191
313.647491	1276.567139	3413.281250	1692.987427	19.488817
314.019318	1342.557251	3360.944336	1674.783325	16.459978
314.391022	1328.904175	3397.352539	1677.058838	16.831684
314.762726	1328.904175	3574.843262	1656.579102	14.589663
315.134369	1260.638550	3502.026611	1736.222412	21.218273
315.505981	1267.465088	3606.700439	1720.293701	19.357975
315.877594	1249.260864	3718.200928	1661.130127	16.682028
316.249146	1315.250977	3611.251465	1724.844727	17.839445
316.620636	1267.465088	3583.945313	1629.272949	15.618862
316.992157	1276.567139	3338.188965	1656.579102	18.432671
317.363586	1240.158813	3388.250488	1722.569214	22.457624
317.735016	1283.393677	3301.780762	1645.201538	17.925592
318.106354	1274.291626	3269.923340	1649.752563	18.814140
