Jaz Data File
++++++++++++++++++++++++++++++++++++
Date: Wed Feb 07 06:44:11 2024
User: jaz
Dark Spectrum Present: Yes
Reference Spectrum Present: Yes
Processed Spectrum Present: Yes
Spectrometers: JAZA3692
Integration Time (usec): 40000 (JAZA3692)
Spectra Averaged: 1 (JAZA3692)
Boxcar Smoothing: 0 (JAZA3692)
Correct for Electrical Dark: No (JAZA3692)
Strobe/Lamp Enabled: Yes (JAZA3692)
Correct for Detector Non-linearity: No (JAZA3692)
Correct for Stray Light: No (JAZA3692)
Number of Pixels in Processed Spectrum: 2048
>>>>>Begin Processed Spectral Data<<<<<
W	D	R	S	P
190.244385	0.000000	0.000000	0.000000	0.000000
190.627136	0.000000	0.000000	0.000000	0.000000
191.009842	1083.147949	1133.209351	992.127075	-181.818466
191.392532	1112.729614	1119.556274	1076.321289	-533.325562
191.775177	1108.178589	1076.321289	1124.107300	-50.000191
192.157791	1074.045776	1146.862427	1064.943726	-12.499958
192.540390	1196.923950	1101.352051	1062.668213	140.476166
192.922943	1142.311401	1117.280762	1085.423462	227.273209
193.305481	1085.423462	1274.291626	1042.188477	-22.891621
193.687958	1201.474976	1078.596802	1167.342163	27.777767
194.070419	1180.995239	1158.240112	1117.280762	280.000549
194.452866	1130.933838	1167.342163	1151.413574	56.250145
194.835251	1140.035889	1199.199463	1112.729614	-46.153862
195.217621	1155.964600	1133.209351	1087.698975	299.999451
195.599960	1092.250000	1165.066650	1130.933838	53.124989
195.982254	1162.791138	1099.076538	1110.454102	82.142929
196.364517	1101.352051	1133.209351	1124.107300	71.428680
196.746750	1085.423462	1192.372925	1046.739624	-36.170204
197.128952	1162.791138	1133.209351	1133.209351	100.000000
197.511139	1165.066650	1110.454102	1067.219238	179.166534
197.893280	1151.413574	1174.168701	1117.280762	-150.000534
198.275391	1110.454102	1140.035889	1124.107300	46.154068
198.657471	1199.199463	1171.893188	1155.964600	158.333069
199.039520	1146.862427	1137.760376	1080.872437	725.001343
199.421539	1180.995239	1174.168701	1117.280762	933.335144
199.803513	1124.107300	1119.556274	1105.903076	400.002686
200.185471	1206.026001	1137.760376	1092.250000	166.666611
200.567383	1117.280762	1180.995239	1167.342163	78.571472
200.949265	1126.382813	1158.240112	1115.005249	-35.714149
201.331131	1165.066650	1208.301514	1039.912964	-289.473999
201.712967	1183.270874	1144.586914	1101.352051	211.764313
202.094742	1124.107300	1169.617676	1155.964600	70.000084
202.476517	1160.515625	1149.138062	1121.831787	340.001068
202.858231	1153.689087	1133.209351	1142.311401	55.555820
203.239944	1165.066650	1149.138062	1089.974487	471.430115
203.621582	1171.893188	1137.760376	1130.933838	119.999931
204.003235	1174.168701	1140.035889	1069.494751	306.666656
204.384827	1153.689087	1203.750488	1149.138062	-9.090887
204.766388	1174.168701	1092.250000	1110.454102	77.777847
205.147934	1133.209351	1228.781250	1101.352051	-33.333332
205.529449	1060.392700	1231.056763	1087.698975	16.000015
205.910904	1135.484863	1135.484863	1101.352051	0.000000
206.292343	1167.342163	1126.382813	1049.015137	288.888916
206.673767	1169.617676	1149.138062	1144.586914	122.222816
207.055115	1185.546387	1231.056763	1117.280762	-150.000137
207.436462	1112.729614	1162.791138	1101.352051	-22.727161
207.817780	1137.760376	1171.893188	1092.250000	-133.333221
208.199051	1126.382813	1158.240112	1060.392700	-207.142822
208.580307	1174.168701	1142.311401	1078.596802	300.000000
208.961517	1112.729614	1115.005249	1128.658325	699.967834
209.342712	1051.290649	1130.933838	1119.556274	85.714333
209.723846	1117.280762	1121.831787	1055.841675	-1350.005371
210.104965	1160.515625	1151.413574	1067.219238	1025.004028
210.486069	1099.076538	1149.138062	1044.463989	-109.090866
210.867111	1140.035889	1162.791138	1069.494751	-309.999420
211.248123	1137.760376	1183.270874	1069.494751	-149.999725
211.629120	1167.342163	1185.546387	1133.209351	-187.499420
212.010071	1121.831787	1217.403687	1128.658325	7.142830
212.390991	1165.066650	1146.862427	1005.780212	874.997131
212.771881	1117.280762	1192.372925	1137.760376	27.272638
213.152756	1110.454102	1167.342163	1026.259888	-147.999786
213.533569	1149.138062	1124.107300	1185.546387	-145.454330
213.914368	1142.311401	1108.178589	1140.035889	6.666643
214.295135	1180.995239	1099.076538	1085.423462	116.666618
214.675858	1140.035889	1185.546387	1137.760376	-4.999973
215.056549	1130.933838	1094.525513	1053.566162	212.499954
215.437225	1119.556274	1115.005249	1119.556274	-0.000000
215.817841	1171.893188	1217.403687	1067.219238	-229.999573
216.198441	1190.097412	1149.138062	1105.903076	205.555832
216.579025	1190.097412	1160.515625	1121.831787	230.769104
216.959549	1158.240112	1196.923950	1137.760376	-52.941326
217.340057	1135.484863	1151.413574	1096.801025	-242.856049
217.720535	1124.107300	1135.484863	1085.423462	-340.001068
218.100967	1144.586914	1194.648438	1121.831787	-45.454323
218.481369	1153.689087	1160.515625	1101.352051	-766.670227
218.861740	1137.760376	1212.852539	1085.423462	-69.696907
219.242065	1094.525513	1199.199463	1124.107300	28.260887
219.622391	1099.076538	1199.199463	1130.933838	31.818188
220.002670	1099.076538	1165.066650	1171.893188	110.344788
220.382919	1089.974487	1251.536499	1167.342163	47.887295
220.763123	1099.076538	1171.893188	1119.556274	28.125072
221.143295	1146.862427	1192.372925	1130.933838	-34.999813
221.523453	1112.729614	1146.862427	1096.801025	-46.666500
221.903549	1096.801025	1199.199463	1112.729614	15.555500
222.283630	1108.178589	1165.066650	1128.658325	36.000061
222.663696	1140.035889	1144.586914	1124.107300	-350.000000
223.043701	1169.617676	1224.230225	1133.209351	-66.666595
223.423676	1178.719727	1130.933838	1067.219238	233.333496
223.803635	1135.484863	1092.250000	1085.423462	115.789429
224.183548	1121.831787	1203.750488	1155.964600	41.666691
224.563431	1124.107300	1187.821899	1049.015137	-117.857071
224.943283	1215.128052	1265.189575	1185.546387	-59.090622
225.323105	1074.045776	1178.719727	1167.342163	89.130470
225.702881	1133.209351	1221.954712	1058.117188	-84.615311
226.082642	1080.872437	1140.035889	1108.178589	46.153751
226.462357	1089.974487	1151.413574	1076.321289	-22.222332
226.842041	1103.627563	1153.689087	1137.760376	68.181732
227.221695	1178.719727	1208.301514	1121.831787	-192.307312
227.601318	1096.801025	1212.852539	1083.147949	-11.764668
227.980911	1130.933838	1240.158813	1108.178589	-20.833376
228.360474	1083.147949	1171.893188	1174.168701	102.564095
228.739990	1096.801025	1210.577026	1076.321289	-18.000050
229.119476	1121.831787	1228.781250	1121.831787	0.000000
229.498932	1069.494751	1240.158813	1064.943726	-2.666657
229.878372	1067.219238	1331.179688	1135.484863	25.862066
230.257736	1153.689087	1358.485962	1165.066650	5.555536
230.637115	1087.698975	1308.424438	1110.454102	10.309244
231.016449	1135.484863	1312.975464	1087.698975	-26.923054
231.395737	1096.801025	1237.883301	1135.484863	27.419346
231.774994	1124.107300	1215.128052	1155.964600	35.000042
232.154221	1140.035889	1303.873413	1076.321289	-38.888893
232.533417	1142.311401	1342.557251	1115.005249	-13.636313
232.912582	1128.658325	1231.056763	1130.933838	2.222214
233.291702	1151.413574	1306.148926	1142.311401	-5.882413
233.670792	1155.964600	1231.056763	1074.045776	-109.091042
234.049866	1158.240112	1217.403687	1135.484863	-38.461586
234.428894	1096.801025	1144.586914	1069.494751	-57.142967
234.807892	1176.444214	1226.505737	1103.627563	-145.454330
235.186874	1126.382813	1274.291626	1133.209351	4.615369
235.565781	1101.352051	1244.709839	1103.627563	1.587296
235.944687	1126.382813	1274.291626	1160.515625	23.076929
236.323547	1146.862427	1303.873413	1092.250000	-34.782551
236.702377	1115.005249	1256.087524	1108.178589	-4.838779
237.081177	1124.107300	1258.363037	1112.729614	-8.474636
237.459946	1215.128052	1290.220337	1021.708862	-257.575317
237.838669	1233.332275	1231.056763	1101.352051	5800.021484
238.217361	1206.026001	1274.291626	1023.984375	-266.666595
238.596039	1119.556274	1342.557251	1126.382813	3.061214
238.974670	1119.556274	1240.158813	1169.617676	41.509411
239.353271	1137.760376	1353.934937	1110.454102	-12.631585
239.731842	1149.138062	1253.812012	1062.668213	-82.608757
240.110367	1155.964600	1376.690063	1110.454102	-20.618599
240.488876	1162.791138	1303.873413	1076.321289	-61.290371
240.867340	1060.392700	1424.476074	1130.933838	19.374996
241.245789	1146.862427	1356.210449	1144.586914	-1.086952
241.624176	1083.147949	1406.271851	1155.964600	22.535210
242.002548	1153.689087	1415.373901	1089.974487	-24.347839
242.380890	1121.831787	1447.231201	1105.903076	-4.895126
242.759186	1046.739624	1542.803101	1128.658325	16.513754
243.137451	1067.219238	1699.814087	1196.923950	20.503599
243.515686	1169.617676	1699.814087	1126.382813	-8.154499
243.893890	1151.413574	1652.028076	1158.240112	1.363632
244.272049	1115.005249	1670.232300	1135.484863	3.688512
244.650192	1105.903076	1588.313477	1115.005249	1.886811
245.028290	1130.933838	1604.242188	1194.648438	13.461541
245.406357	1130.933838	1558.731689	1105.903076	-5.851072
245.784393	1119.556274	1570.109375	1151.413574	7.070709
246.162384	1206.026001	1570.109375	1208.301514	0.624998
246.540359	1162.791138	1604.242188	1144.586914	-4.123724
246.918289	1137.760376	1626.997314	1119.556274	-3.720917
247.296204	1196.923950	1770.355225	1194.648438	-0.396824
247.674057	1153.689087	2018.386963	1110.454102	-5.000010
248.051895	1187.821899	2195.877686	1171.893188	-1.580142
248.429703	1226.505737	2168.571289	1149.138062	-8.212558
248.807465	1153.689087	2161.744873	1080.872437	-7.223475
249.185196	1155.964600	2045.693237	1171.893188	1.790275
249.562897	1108.178589	1902.335449	1171.893188	8.022923
249.940567	1101.352051	1961.498901	1176.444214	8.730156
250.318192	1160.515625	1781.732788	1210.577026	8.058599
250.695801	1144.586914	1695.262939	1201.474976	10.330586
251.073349	1096.801025	1647.477051	1169.617676	13.223138
251.450882	1160.515625	1529.150024	1171.893188	3.086409
251.828400	1167.342163	1556.456177	1194.648438	7.017551
252.205872	1101.352051	1683.885376	1165.066650	10.937503
252.583313	1110.454102	1736.222412	1176.444214	10.545454
252.960693	1158.240112	1654.303589	1219.679199	12.385327
253.338074	1128.658325	1834.069824	1231.056763	14.516129
253.715408	1140.035889	1804.488037	1278.842651	20.890408
254.092682	1176.444214	1890.957764	1180.995239	0.636940
254.469955	1185.546387	1695.262939	1178.719727	-1.339305
254.847198	1085.423462	1624.721802	1135.484863	9.282692
255.224365	1023.984375	1638.375000	1110.454102	14.074063
255.601563	1101.352051	1629.272949	1142.311401	7.758615
255.978683	1110.454102	1531.425537	1183.270874	17.297319
256.355743	1112.729614	1542.803101	1221.954712	25.396845
256.732819	1146.862427	1556.456177	1226.505737	19.444464
257.109894	1101.352051	1604.242188	1121.831787	4.072408
257.486877	1053.566162	1677.058838	1158.240112	16.788321
257.863831	1099.076538	1690.711914	1183.270874	14.230782
258.240753	1112.729614	1686.160889	1137.760376	4.365085
258.617645	1110.454102	1713.467163	1235.607788	20.754723
258.994507	1101.352051	1770.355225	1144.586914	6.462580
259.371307	1137.760376	1918.264038	1221.954712	10.787180
259.748108	1074.045776	1972.876587	1167.342163	10.379749
260.124878	1117.280762	2102.581299	1192.372925	7.621244
260.501617	1108.178589	2396.123291	1256.087524	11.484106
260.878296	1135.484863	2650.981689	1276.567139	9.309309
261.254944	1117.280762	2644.155273	1217.403687	6.557377
261.631561	1151.413574	2610.022461	1226.505737	5.148204
262.008179	1187.821899	2336.959961	1174.168701	-1.188125
262.384735	1142.311401	2182.224365	1190.097412	4.595193
262.761261	1142.311401	1966.049927	1190.097412	5.801114
263.137695	1151.413574	1970.601074	1169.617676	2.222214
263.514191	1171.893188	2000.182739	1167.342163	-0.549449
263.890594	1080.872437	1929.641602	1160.515625	9.383374
264.267029	1121.831787	1877.304688	1194.648438	9.638553
264.643341	1044.463989	1879.580200	1196.923950	18.256138
265.019653	1060.392700	1886.406738	1105.903076	5.509637
265.395935	1103.627563	1854.549438	1137.760376	4.545455
265.772217	1158.240112	1815.865601	1160.515625	0.346020
266.148407	1083.147949	1781.732788	1140.035889	8.143312
266.524597	1096.801025	1959.223389	1155.964600	6.860162
266.900726	1160.515625	1979.703125	1158.240112	-0.277777
267.276855	1190.097412	2072.999512	1124.107300	-7.474227
267.652924	1178.719727	1997.907227	1235.607788	6.944449
268.028992	1112.729614	2109.407715	1208.301514	9.589044
268.404999	1183.270874	2013.835938	1237.883301	6.575334
268.781006	1124.107300	2200.428711	1215.128052	8.456652
269.156921	1183.270874	2070.723877	1190.097412	0.769228
269.532837	1142.311401	2054.795166	1235.607788	10.224443
269.908661	1210.577026	2091.203613	1155.964600	-6.201542
270.284546	1092.250000	2050.244141	1130.933838	4.038003
270.660339	1144.586914	2120.785400	1249.260864	10.722610
271.036133	1126.382813	2164.020264	1240.158813	10.964909
271.411835	1146.862427	2132.163086	1199.199463	5.311783
271.787537	1101.352051	2232.285889	1192.372925	8.048293
272.163239	1049.015137	2503.072998	1174.168701	8.607193
272.538849	1174.168701	2655.532715	1262.914063	5.990787
272.914459	1158.240112	2544.032227	1203.750488	3.284070
273.290070	1149.138062	2468.940186	1219.679199	5.344827
273.665588	1101.352051	2245.938965	1249.260864	12.922462
274.041046	1094.525513	2377.919189	1278.842651	14.361699
274.416565	1028.535400	2314.204590	1162.791138	10.442479
274.791962	1051.290649	2270.969727	1199.199463	12.126863
275.167389	1155.964600	2227.734863	1135.484863	-1.910833
275.542755	1108.178589	2175.397949	1142.311401	3.198294
275.918060	1121.831787	2241.387939	1221.954712	8.943091
276.293365	1121.831787	2280.071777	1240.158813	10.216106
276.668640	1160.515625	2355.164063	1249.260864	7.428566
277.043854	1099.076538	2277.796387	1176.444214	6.563704
277.419037	1144.586914	2402.949951	1242.434326	7.775770
277.794189	1206.026001	2380.194824	1201.474976	-0.387595
278.169312	1144.586914	2309.653564	1151.413574	0.585946
278.544373	1167.342163	2264.143311	1135.484863	-2.904565
278.919464	1149.138062	2309.653564	1180.995239	2.745089
279.294464	1096.801025	2371.092773	1149.138062	4.107147
279.669464	1153.689087	2332.408936	1146.862427	-0.579159
280.044403	1053.566162	2366.541748	1151.413574	7.452341
280.419312	1078.596802	2361.990479	1190.097412	8.687951
280.794189	1110.454102	2277.796387	1171.893188	5.263160
281.169037	1144.586914	2366.541748	1144.586914	0.000000
281.543854	1158.240112	2334.684326	1258.363037	8.510639
281.918671	1135.484863	2471.215576	1233.332275	7.325385
282.293365	1126.382813	2575.889648	1235.607788	7.535320
282.668091	1064.943726	2660.083740	1294.771362	14.407991
283.042786	1124.107300	2883.084961	1272.016113	8.408794
283.417419	1142.311401	2778.410889	1274.291626	8.066760
283.792053	1187.821899	2562.236328	1315.250977	9.271518
284.166595	1119.556274	2689.665527	1267.465088	9.420288
284.541138	1133.209351	2628.226563	1228.781250	6.392695
284.915619	1096.801025	2614.573486	1258.363037	10.644679
285.290100	1137.760376	2801.166016	1312.975464	10.533515
285.664520	1137.760376	2739.727051	1251.536499	7.102278
286.038940	1105.903076	2789.788574	1246.985352	8.378377
286.413300	1144.586914	2828.472412	1360.761475	12.837842
286.787628	1028.535400	2926.319824	1326.628662	15.707436
287.161896	1174.168701	2953.625977	1367.588013	10.869568
287.536194	1140.035889	3046.922363	1283.393677	7.517899
287.910400	1064.943726	2853.503174	1242.434326	9.923662
288.284607	1121.831787	2730.625000	1283.393677	10.042427
288.658752	1121.831787	2662.359375	1319.802124	12.850814
289.032867	1140.035889	2562.236328	1303.873413	11.520002
289.406921	1080.872437	2678.288086	1356.210449	17.236467
289.781006	1144.586914	2687.390137	1272.016113	8.259588
290.154999	1135.484863	2716.971924	1392.618774	16.258995
290.529022	1151.413574	2844.401123	1449.506714	17.607521
290.902954	1078.596802	2867.156250	1299.322388	12.340970
291.276825	1135.484863	3015.064941	1424.476074	15.375307
291.650757	1137.760376	2990.034424	1381.241089	13.144961
292.024597	1112.729614	2960.452637	1472.261963	19.458130
292.398407	1226.505737	2905.840088	1406.271851	10.704605
292.772156	1137.760376	2769.308838	1422.200562	17.433756
293.145905	1080.872437	2716.971924	1353.934937	16.689846
293.519592	1144.586914	2703.318604	1367.588013	14.306574
293.893280	1119.556274	2830.747803	1326.628662	12.101065
294.266907	1094.525513	2912.666504	1433.578125	18.648312
294.640533	1140.035889	2933.146240	1424.476074	15.862949
295.014069	1137.760376	2990.034424	1415.373901	14.987714
295.387604	1124.107300	3074.228516	1538.252075	21.236874
295.761078	1105.903076	3147.045166	1495.017212	19.063549
296.134552	1101.352051	3213.035400	1467.710938	17.349140
296.507996	1158.240112	3096.983887	1499.568237	17.605633
296.881378	1117.280762	3188.004639	1545.078613	20.659338
297.254730	1169.617676	3235.790527	1508.670288	16.409693
297.628021	1146.862427	3542.985840	1604.242188	19.088322
298.001282	1151.413574	3565.741211	1620.170776	19.415642
298.374573	1185.546387	3442.863037	1636.099487	19.959677
298.747803	1167.342163	3447.414063	1572.384888	17.764473
299.121002	1121.831787	3324.535889	1520.047852	18.078508
299.494141	1135.484863	3285.852051	1556.456177	19.576717
299.867188	1130.933838	3126.565674	1438.129150	15.393386
300.240265	1137.760376	3065.126465	1549.629639	21.369539
300.613312	1076.321289	2944.523926	1447.231201	19.853838
300.986328	1112.729614	3033.269287	1467.710938	18.483416
301.359314	1087.698975	2930.870850	1483.639526	21.481478
301.732239	1126.382813	2803.441650	1513.221313	23.066484
302.105103	1058.117188	2974.105713	1463.159912	21.140144
302.477997	1101.352051	2962.728027	1415.373901	16.870415
302.850830	1128.658325	3044.646729	1458.608887	17.220905
303.223602	1196.923950	2889.911377	1447.231201	14.784945
303.596375	1180.995239	3005.962891	1417.649414	12.967582
303.969116	1094.525513	2883.084961	1415.373901	17.938929
304.341766	1149.138062	2842.125488	1383.516602	13.844080
304.714478	1128.658325	2807.992676	1358.485962	13.685639
305.087067	1135.484863	2732.900391	1508.670288	23.361826
305.459656	1108.178589	2721.522949	1435.853638	20.310299
305.832214	1176.444214	2844.401123	1474.537476	17.871759
306.204681	1103.627563	2801.166016	1372.139038	15.817697
306.577148	1110.454102	2780.686523	1419.924927	18.528608
306.949646	1155.964600	2714.696289	1488.190552	21.313864
307.322021	1124.107300	2789.788574	1417.649414	17.622946
307.694397	1171.893188	2826.196777	1438.129150	16.093536
308.066742	1137.760376	2762.482178	1358.485962	13.585439
308.439026	1130.933838	2939.972900	1422.200562	16.100632
308.811279	1105.903076	3051.473389	1433.578125	16.842108
309.183502	1137.760376	3108.361328	1472.261963	16.974598
309.555695	1180.995239	3058.300049	1417.649414	12.606060
309.927887	1069.494751	3046.922363	1465.435425	20.023018
310.299988	1124.107300	3106.085938	1551.905151	21.584383
310.672058	1158.240112	3144.769775	1481.364014	16.265747
311.044128	1140.035889	3169.800537	1449.506714	15.246635
311.416168	1171.893188	3160.698486	1526.874512	17.848972
311.788147	1174.168701	3231.239502	1515.496826	16.592920
312.160065	1074.045776	3206.208740	1399.445313	15.261475
312.531982	1112.729614	3172.075928	1510.945801	19.337021
312.903870	1196.923950	3010.513916	1399.445313	11.166877
313.275696	1128.658325	2939.972900	1447.231201	17.587938
313.647491	1178.719727	3053.749023	1476.812988	15.898059
314.019318	1105.903076	3005.962891	1463.159912	18.802399
314.391022	1115.005249	2992.309814	1447.231201	17.696966
314.762726	1146.862427	2992.309814	1488.190552	18.495684
315.134369	1010.331238	3188.004639	1479.088501	21.525600
315.505981	1099.076538	3135.667725	1463.159912	17.877096
315.877594	1124.107300	3331.362549	1435.853638	14.123710
316.249146	1155.964600	3167.524902	1485.915039	16.402712
316.620636	1185.546387	3005.962891	1522.323364	18.499996
316.992157	1162.791138	3042.371338	1392.618774	12.227605
317.363586	1165.066650	2933.146240	1399.445313	13.256115
317.735016	1083.147949	2892.187012	1399.445313	17.484276
318.106354	1105.903076	2901.289063	1422.200562	17.617241
