Jaz Data File
++++++++++++++++++++++++++++++++++++
Date: Wed Feb 07 06:44:57 2024
User: jaz
Dark Spectrum Present: Yes
Reference Spectrum Present: Yes
Processed Spectrum Present: Yes
Spectrometers: JAZA3692
Integration Time (usec): 40000 (JAZA3692)
Spectra Averaged: 1 (JAZA3692)
Boxcar Smoothing: 0 (JAZA3692)
Correct for Electrical Dark: No (JAZA3692)
Strobe/Lamp Enabled: Yes (JAZA3692)
Correct for Detector Non-linearity: No (JAZA3692)
Correct for Stray Light: No (JAZA3692)
Number of Pixels in Processed Spectrum: 2048
>>>>>Begin Processed Spectral Data<<<<<
W	D	R	S	P
190.244385	0.000000	0.000000	0.000000	0.000000
190.627136	0.000000	0.000000	0.000000	0.000000
191.009842	1083.147949	1133.209351	1033.086426	-100.000244
191.392532	1112.729614	1119.556274	1014.882263	-1433.312134
191.775177	1108.178589	1076.321289	1076.321289	100.000000
192.157791	1074.045776	1146.862427	1051.290649	-31.249895
192.540390	1196.923950	1101.352051	1119.556274	80.952324
192.922943	1142.311401	1117.280762	1071.770264	281.819153
193.305481	1085.423462	1274.291626	1085.423462	0.000000
193.687958	1201.474976	1078.596802	1119.556274	66.666603
194.070419	1180.995239	1158.240112	1130.933838	220.000534
194.452866	1130.933838	1167.342163	1133.209351	6.249979
194.835251	1140.035889	1199.199463	1089.974487	-84.615242
195.217621	1155.964600	1133.209351	1046.739624	479.999023
195.599960	1092.250000	1165.066650	1128.658325	50.000000
195.982254	1162.791138	1099.076538	1085.423462	121.428490
196.364517	1101.352051	1133.209351	1110.454102	28.571320
196.746750	1085.423462	1192.372925	1035.361938	-46.808578
197.128952	1162.791138	1133.209351	1105.903076	192.307724
197.511139	1165.066650	1110.454102	1137.760376	50.000000
197.893280	1151.413574	1174.168701	1140.035889	-50.000538
198.275391	1110.454102	1140.035889	1119.556274	30.769516
198.657471	1199.199463	1171.893188	1089.974487	399.999542
199.039520	1146.862427	1137.760376	1087.698975	650.001343
199.421539	1180.995239	1174.168701	1128.658325	766.668457
199.803513	1124.107300	1119.556274	1160.515625	-800.002686
200.185471	1206.026001	1137.760376	1069.494751	200.000000
200.567383	1117.280762	1180.995239	1112.729614	-7.143035
200.949265	1126.382813	1158.240112	1037.637451	-278.571503
201.331131	1165.066650	1208.301514	1094.525513	-163.158005
201.712967	1183.270874	1144.586914	1071.770264	288.234741
202.094742	1124.107300	1169.617676	1130.933838	14.999960
202.476517	1160.515625	1149.138062	1076.321289	740.003235
202.858231	1153.689087	1133.209351	1067.219238	422.221497
203.239944	1165.066650	1149.138062	1108.178589	357.144379
203.621582	1171.893188	1137.760376	1083.147949	259.999786
204.003235	1174.168701	1140.035889	1130.933838	126.666573
204.384827	1153.689087	1203.750488	1028.535400	-250.000366
204.766388	1174.168701	1092.250000	1062.668213	136.111145
205.147934	1133.209351	1228.781250	1039.912964	-97.619057
205.529449	1060.392700	1231.056763	1069.494751	5.333314
205.910904	1135.484863	1135.484863	1089.974487	0.000000
206.292343	1167.342163	1126.382813	1071.770264	233.333527
206.673767	1169.617676	1149.138062	1069.494751	488.890686
207.055115	1185.546387	1231.056763	1103.627563	-180.000320
207.436462	1112.729614	1162.791138	1058.117188	-109.090622
207.817780	1137.760376	1171.893188	1094.525513	-126.666573
208.199051	1126.382813	1158.240112	1019.433350	-335.714142
208.580307	1174.168701	1142.311401	1069.494751	328.571320
208.961517	1112.729614	1115.005249	1003.504700	-4799.755859
209.342712	1051.290649	1130.933838	1039.912964	-14.285824
209.723846	1117.280762	1121.831787	1187.821899	1550.005371
210.104965	1160.515625	1151.413574	1014.882263	1600.005981
210.486069	1099.076538	1149.138062	1064.943726	-68.181732
210.867111	1140.035889	1162.791138	1069.494751	-309.999420
211.248123	1137.760376	1183.270874	1064.943726	-159.999680
211.629120	1167.342163	1185.546387	1126.382813	-224.999161
212.010071	1121.831787	1217.403687	1062.668213	-61.904781
212.390991	1165.066650	1146.862427	1076.321289	487.498749
212.771881	1117.280762	1192.372925	1103.627563	-18.181921
213.152756	1110.454102	1167.342163	1071.770264	-67.999924
213.533569	1149.138062	1124.107300	1071.770264	309.090851
213.914368	1142.311401	1108.178589	1051.290649	266.666443
214.295135	1180.995239	1099.076538	1151.413574	36.111004
214.675858	1140.035889	1185.546387	1103.627563	-79.999840
215.056549	1130.933838	1094.525513	1023.984375	293.750031
215.437225	1119.556274	1115.005249	1055.841675	1400.005371
215.817841	1171.893188	1217.403687	1162.791138	-19.999893
216.198441	1190.097412	1149.138062	1055.841675	327.777985
216.579025	1190.097412	1160.515625	1087.698975	346.153656
216.959549	1158.240112	1196.923950	1033.086426	-323.529663
217.340057	1135.484863	1151.413574	998.953613	-857.139343
217.720535	1124.107300	1135.484863	1010.331238	-1000.003784
218.100967	1144.586914	1194.648438	1035.361938	-218.181488
218.481369	1153.689087	1160.515625	1062.668213	-1333.338745
218.861740	1137.760376	1212.852539	1089.974487	-63.636318
219.242065	1094.525513	1199.199463	1008.055725	-82.608696
219.622391	1099.076538	1199.199463	1096.801025	-2.272719
220.002670	1099.076538	1165.066650	1053.566162	-68.965446
220.382919	1089.974487	1251.536499	1092.250000	1.408445
220.763123	1099.076538	1171.893188	1069.494751	-40.625031
221.143295	1146.862427	1192.372925	1064.943726	-179.999573
221.523453	1112.729614	1146.862427	1117.280762	13.333643
221.903549	1096.801025	1199.199463	1092.250000	-4.444428
222.283630	1108.178589	1165.066650	1115.005249	12.000163
222.663696	1140.035889	1144.586914	1101.352051	-850.002686
223.043701	1169.617676	1224.230225	1083.147949	-158.333069
223.423676	1178.719727	1130.933838	1121.831787	119.047569
223.803635	1135.484863	1092.250000	1071.770264	147.368576
224.183548	1121.831787	1203.750488	1101.352051	-25.000074
224.563431	1124.107300	1187.821899	1140.035889	24.999905
224.943283	1215.128052	1265.189575	1074.045776	-281.817780
225.323105	1074.045776	1178.719727	1130.933838	54.347870
225.702881	1133.209351	1221.954712	1064.943726	-76.923035
226.082642	1080.872437	1140.035889	1046.739624	-57.692394
226.462357	1089.974487	1151.413574	1064.943726	-40.740776
226.842041	1103.627563	1153.689087	1096.801025	-13.636297
227.221695	1178.719727	1208.301514	1060.392700	-399.999573
227.601318	1096.801025	1212.852539	1039.912964	-49.019665
227.980911	1130.933838	1240.158813	1151.413574	18.750050
228.360474	1083.147949	1171.893188	1087.698975	5.128191
228.739990	1096.801025	1210.577026	1039.912964	-50.000053
229.119476	1121.831787	1228.781250	1119.556274	-2.127652
229.498932	1069.494751	1240.158813	1067.219238	-1.333329
229.878372	1067.219238	1331.179688	1149.138062	31.034506
230.257736	1153.689087	1358.485962	1110.454102	-21.111155
230.637115	1087.698975	1308.424438	1080.872437	-3.092773
231.016449	1135.484863	1312.975464	1078.596802	-32.051308
231.395737	1096.801025	1237.883301	1039.912964	-40.322613
231.774994	1124.107300	1215.128052	1051.290649	-80.000053
232.154221	1140.035889	1303.873413	1035.361938	-63.888874
232.533417	1142.311401	1342.557251	1085.423462	-28.409048
232.912582	1128.658325	1231.056763	1126.382813	-2.222214
233.291702	1151.413574	1306.148926	1060.392700	-58.823582
233.670792	1155.964600	1231.056763	1069.494751	-115.151627
234.049866	1158.240112	1217.403687	1089.974487	-115.384552
234.428894	1096.801025	1144.586914	1055.841675	-85.714325
234.807892	1176.444214	1226.505737	1055.841675	-240.908646
235.186874	1126.382813	1274.291626	1008.055725	-80.000023
235.565781	1101.352051	1244.709839	1124.107300	15.873047
235.944687	1126.382813	1274.291626	1074.045776	-35.384663
236.323547	1146.862427	1303.873413	1117.280762	-18.840506
236.702377	1115.005249	1256.087524	1089.974487	-17.741961
237.081177	1124.107300	1258.363037	1133.209351	6.779636
237.459946	1215.128052	1290.220337	1110.454102	-139.393753
237.838669	1233.332275	1231.056763	1101.352051	5800.021484
238.217361	1206.026001	1274.291626	1092.250000	-166.666611
238.596039	1119.556274	1342.557251	1096.801025	-10.204103
238.974670	1119.556274	1240.158813	1119.556274	0.000000
239.353271	1137.760376	1353.934937	1078.596802	-27.368425
239.731842	1149.138062	1253.812012	1130.933838	-17.391359
240.110367	1155.964600	1376.690063	1112.729614	-19.587675
240.488876	1162.791138	1303.873413	1078.596802	-59.677471
240.867340	1060.392700	1424.476074	1128.658325	18.749998
241.245789	1146.862427	1356.210449	1035.361938	-53.260826
241.624176	1083.147949	1406.271851	1144.586914	19.014057
242.002548	1153.689087	1415.373901	1137.760376	-6.086983
242.380890	1121.831787	1447.231201	1153.689087	9.790215
242.759186	1046.739624	1542.803101	1185.546387	27.981653
243.137451	1067.219238	1699.814087	1121.831787	8.633101
243.515686	1169.617676	1699.814087	1119.556274	-9.442048
243.893890	1151.413574	1652.028076	1142.311401	-1.818200
244.272049	1115.005249	1670.232300	1092.250000	-4.098368
244.650192	1105.903076	1588.313477	1115.005249	1.886811
245.028290	1130.933838	1604.242188	1089.974487	-8.653841
245.406357	1130.933838	1558.731689	1080.872437	-11.702116
245.784393	1119.556274	1570.109375	1026.259888	-20.707079
246.162384	1206.026001	1570.109375	1117.280762	-24.374977
246.540359	1162.791138	1604.242188	1146.862427	-3.608262
246.918289	1137.760376	1626.997314	1080.872437	-11.627892
247.296204	1196.923950	1770.355225	1115.005249	-14.285706
247.674057	1153.689087	2018.386963	1206.026001	6.052624
248.051895	1187.821899	2195.877686	1126.382813	-6.094810
248.429703	1226.505737	2168.571289	1235.607788	0.966180
248.807465	1153.689087	2161.744873	1199.199463	4.514668
249.185196	1155.964600	2045.693237	1130.933838	-2.813303
249.562897	1108.178589	1902.335449	1217.403687	13.753592
249.940567	1101.352051	1961.498901	1183.270874	9.523818
250.318192	1160.515625	1781.732788	1155.964600	-0.732598
250.695801	1144.586914	1695.262939	1108.178589	-6.611569
251.073349	1096.801025	1647.477051	1119.556274	4.132239
251.450882	1160.515625	1529.150024	1178.719727	4.938253
251.828400	1167.342163	1556.456177	1158.240112	-2.339173
252.205872	1101.352051	1683.885376	1165.066650	10.937503
252.583313	1110.454102	1736.222412	1133.209351	3.636370
252.960693	1158.240112	1654.303589	1128.658325	-5.963307
253.338074	1128.658325	1834.069824	1215.128052	12.258055
253.715408	1140.035889	1804.488037	1096.801025	-6.506844
254.092682	1176.444214	1890.957764	1169.617676	-0.955411
254.469955	1185.546387	1695.262939	1146.862427	-7.589308
254.847198	1085.423462	1624.721802	1183.270874	18.143467
255.224365	1023.984375	1638.375000	1149.138062	20.370377
255.601563	1101.352051	1629.272949	1155.964600	10.344835
255.978683	1110.454102	1531.425537	1117.280762	1.621644
256.355743	1112.729614	1542.803101	1153.689087	9.523831
256.732819	1146.862427	1556.456177	1167.342163	5.000012
257.109894	1101.352051	1604.242188	1101.352051	0.000000
257.486877	1053.566162	1677.058838	1187.821899	21.532848
257.863831	1099.076538	1690.711914	1092.250000	-1.153842
258.240753	1112.729614	1686.160889	1174.168701	10.714290
258.617645	1110.454102	1713.467163	1199.199463	14.716989
258.994507	1101.352051	1770.355225	1235.607788	20.068027
259.371307	1137.760376	1918.264038	1185.546387	6.122458
259.748108	1074.045776	1972.876587	1210.577026	15.189872
260.124878	1117.280762	2102.581299	1171.893188	5.542717
260.501617	1108.178589	2396.123291	1203.750488	7.420497
260.878296	1135.484863	2650.981689	1260.638550	8.258262
261.254944	1117.280762	2644.155273	1169.617676	3.427716
261.631561	1151.413574	2610.022461	1242.434326	6.240244
262.008179	1187.821899	2336.959961	1135.484863	-4.554460
262.384735	1142.311401	2182.224365	1212.852539	6.783370
262.761261	1142.311401	1966.049927	1165.066650	2.762436
263.137695	1151.413574	1970.601074	1206.026001	6.666658
263.514191	1171.893188	2000.182739	1256.087524	10.164844
263.890594	1080.872437	1929.641602	1203.750488	14.477205
264.267029	1121.831787	1877.304688	1187.821899	8.734941
264.643341	1044.463989	1879.580200	1190.097412	17.438702
265.019653	1060.392700	1886.406738	1228.781250	20.385677
265.395935	1103.627563	1854.549438	1146.862427	5.757571
265.772217	1158.240112	1815.865601	1201.474976	6.574390
266.148407	1083.147949	1781.732788	1171.893188	12.703573
266.524597	1096.801025	1959.223389	1153.689087	6.596311
266.900726	1160.515625	1979.703125	1153.689087	-0.833330
267.276855	1190.097412	2072.999512	1151.413574	-4.381442
267.652924	1178.719727	1997.907227	1155.964600	-2.777768
268.028992	1112.729614	2109.407715	1153.689087	4.109599
268.404999	1183.270874	2013.835938	1208.301514	3.013688
268.781006	1124.107300	2200.428711	1158.240112	3.171247
269.156921	1183.270874	2070.723877	1105.903076	-8.717960
269.532837	1142.311401	2054.795166	1171.893188	3.241897
269.908661	1210.577026	2091.203613	1249.260864	4.392763
270.284546	1092.250000	2050.244141	1231.056763	14.489312
270.660339	1144.586914	2120.785400	1169.617676	2.564106
271.036133	1126.382813	2164.020264	1151.413574	2.412284
271.411835	1146.862427	2132.163086	1185.546387	3.926107
271.787537	1101.352051	2232.285889	1176.444214	6.639837
272.163239	1049.015137	2503.072998	1201.474976	10.485128
272.538849	1174.168701	2655.532715	1235.607788	4.147467
272.914459	1158.240112	2544.032227	1210.577026	3.776679
273.290070	1149.138062	2468.940186	1310.699951	12.241372
273.665588	1101.352051	2245.938965	1253.812012	13.320086
274.041046	1094.525513	2377.919189	1237.883301	11.170212
274.416565	1028.535400	2314.204590	1192.372925	12.743365
274.791962	1051.290649	2270.969727	1126.382813	6.156715
275.167389	1155.964600	2227.734863	1142.311401	-1.273892
275.542755	1108.178589	2175.397949	1110.454102	0.213219
275.918060	1121.831787	2241.387939	1246.985352	11.178856
276.293365	1121.831787	2280.071777	1146.862427	2.161093
276.668640	1160.515625	2355.164063	1089.974487	-5.904761
277.043854	1099.076538	2277.796387	1169.617676	5.984555
277.419037	1144.586914	2402.949951	1099.076538	-3.616633
277.794189	1206.026001	2380.194824	1180.995239	-2.131786
278.169312	1144.586914	2309.653564	1237.883301	8.007815
278.544373	1167.342163	2264.143311	1212.852539	4.149374
278.919464	1149.138062	2309.653564	1228.781250	6.862742
279.294464	1096.801025	2371.092773	1176.444214	6.249996
279.669464	1153.689087	2332.408936	1158.240112	0.386099
280.044403	1053.566162	2366.541748	1237.883301	14.038124
280.419312	1078.596802	2361.990479	1146.862427	5.319149
280.794189	1110.454102	2277.796387	1146.862427	3.118907
281.169037	1144.586914	2366.541748	1203.750488	4.841715
281.543854	1158.240112	2334.684326	1253.812012	8.123794
281.918671	1135.484863	2471.215576	1135.484863	0.000000
282.293365	1126.382813	2575.889648	1201.474976	5.180532
282.668091	1064.943726	2660.083740	1228.781250	10.271044
283.042786	1124.107300	2883.084961	1217.403687	5.304012
283.417419	1142.311401	2778.410889	1281.118164	8.484005
283.792053	1187.821899	2562.236328	1231.056763	3.145693
284.166595	1119.556274	2689.665527	1319.802124	12.753625
284.541138	1133.209351	2628.226563	1201.474976	4.566210
284.915619	1096.801025	2614.573486	1281.118164	12.143925
285.290100	1137.760376	2801.166016	1185.546387	2.872782
285.664520	1137.760376	2739.727051	1176.444214	2.414772
286.038940	1105.903076	2789.788574	1212.852539	6.351350
286.413300	1144.586914	2828.472412	1274.291626	7.702704
286.787628	1028.535400	2926.319824	1292.495850	13.908875
287.161896	1174.168701	2953.625977	1376.690063	11.381075
287.536194	1140.035889	3046.922363	1278.842651	7.279236
287.910400	1064.943726	2853.503174	1290.220337	12.595422
288.284607	1121.831787	2730.625000	1292.495850	10.608204
288.658752	1121.831787	2662.359375	1333.455200	13.737074
289.032867	1140.035889	2562.236328	1306.148926	11.680002
289.406921	1080.872437	2678.288086	1299.322388	13.675210
289.781006	1144.586914	2687.390137	1297.046875	9.882010
290.154999	1135.484863	2716.971924	1385.792114	15.827334
290.529022	1151.413574	2844.401123	1335.730713	10.887094
290.902954	1078.596802	2867.156250	1292.495850	11.959292
291.276825	1135.484863	3015.064941	1449.506714	16.707022
291.650757	1137.760376	2990.034424	1435.853638	16.093367
292.024597	1112.729614	2960.452637	1349.383789	12.807881
292.398407	1226.505737	2905.840088	1483.639526	15.311649
292.772156	1137.760376	2769.308838	1365.312500	13.947003
293.145905	1080.872437	2716.971924	1356.210449	16.828928
293.519592	1144.586914	2703.318604	1363.036987	14.014604
293.893280	1119.556274	2830.747803	1365.312500	14.361702
294.266907	1094.525513	2912.666504	1394.894287	16.520653
294.640533	1140.035889	2933.146240	1388.067749	13.832493
295.014069	1137.760376	2990.034424	1431.302612	15.847668
295.387604	1124.107300	3074.228516	1469.986450	17.736290
295.761078	1105.903076	3147.045166	1433.578125	16.053514
296.134552	1101.352051	3213.035400	1474.537476	17.672415
296.507996	1158.240112	3096.983887	1472.261963	16.197182
296.881378	1117.280762	3188.004639	1488.190552	17.912083
297.254730	1169.617676	3235.790527	1549.629639	18.392071
297.628021	1146.862427	3542.985840	1631.548462	20.227924
298.001282	1151.413574	3565.741211	1633.823975	19.981150
298.374573	1185.546387	3442.863037	1533.701050	15.423387
298.747803	1167.342163	3447.414063	1633.823975	20.459084
299.121002	1121.831787	3324.535889	1526.874512	18.388432
299.494141	1135.484863	3285.852051	1538.252075	18.730160
299.867188	1130.933838	3126.565674	1501.843750	18.586090
300.240265	1137.760376	3065.126465	1529.150024	20.306971
300.613312	1076.321289	2944.523926	1495.017212	22.411697
300.986328	1112.729614	3033.269287	1449.506714	17.535545
301.359314	1087.698975	2930.870850	1538.252075	24.444443
301.732239	1126.382813	2803.441650	1433.578125	18.317503
302.105103	1058.117188	2974.105713	1399.445313	17.814728
302.477997	1101.352051	2962.728027	1492.741699	21.026899
302.850830	1128.658325	3044.646729	1547.354126	21.852732
303.223602	1196.923950	2889.911377	1472.261963	16.263441
303.596375	1180.995239	3005.962891	1497.292725	17.331676
303.969116	1094.525513	2883.084961	1488.190552	22.010174
304.341766	1149.138062	2842.125488	1440.404663	17.204298
304.714478	1128.658325	2807.992676	1438.129150	18.428185
305.087067	1135.484863	2732.900391	1429.027100	18.376072
305.459656	1108.178589	2721.522949	1397.169800	17.912556
305.832214	1176.444214	2844.401123	1360.761475	11.050481
306.204681	1103.627563	2801.166016	1472.261963	21.715820
306.577148	1110.454102	2780.686523	1426.751587	18.937334
306.949646	1155.964600	2714.696289	1413.098389	16.496347
307.322021	1124.107300	2789.788574	1460.884399	20.218580
307.694397	1171.893188	2826.196777	1456.333252	17.193945
308.066742	1137.760376	2762.482178	1460.884399	19.887960
308.439026	1130.933838	2939.972900	1419.924927	15.974839
308.811279	1105.903076	3051.473389	1388.067749	14.502929
309.183502	1137.760376	3108.361328	1495.017212	18.129333
309.555695	1180.995239	3058.300049	1485.915039	16.242424
309.927887	1069.494751	3046.922363	1474.537476	20.483315
310.299988	1124.107300	3106.085938	1456.333252	16.762339
310.672058	1158.240112	3144.769775	1438.129150	14.089346
311.044128	1140.035889	3169.800537	1481.364014	16.816143
311.416168	1171.893188	3160.698486	1456.333252	14.302057
311.788147	1174.168701	3231.239502	1535.976563	17.588499
312.160065	1074.045776	3206.208740	1458.608887	18.036289
312.531982	1112.729614	3172.075928	1492.741699	18.453045
312.903870	1196.923950	3010.513916	1390.343262	10.664997
313.275696	1128.658325	2939.972900	1506.394775	20.854271
313.647491	1178.719727	3053.749023	1440.404663	13.956312
314.019318	1105.903076	3005.962891	1479.088501	19.640720
314.391022	1115.005249	2992.309814	1433.578125	16.969696
314.762726	1146.862427	2992.309814	1517.772339	20.098644
315.134369	1010.331238	3188.004639	1492.741699	22.152563
315.505981	1099.076538	3135.667725	1526.874512	21.005589
315.877594	1124.107300	3331.362549	1567.833862	20.103092
316.249146	1155.964600	3167.524902	1431.302612	13.687783
316.620636	1185.546387	3005.962891	1520.047852	18.374996
316.992157	1162.791138	3042.371338	1460.884399	15.859566
317.363586	1165.066650	2933.146240	1406.271851	13.642214
317.735016	1083.147949	2892.187012	1424.476074	18.867924
