Jaz Data File
++++++++++++++++++++++++++++++++++++
Date: Wed Feb 07 06:46:48 2024
User: jaz
Dark Spectrum Present: Yes
Reference Spectrum Present: Yes
Processed Spectrum Present: Yes
Spectrometers: JAZA3692
Integration Time (usec): 47000 (JAZA3692)
Spectra Averaged: 1 (JAZA3692)
Boxcar Smoothing: 0 (JAZA3692)
Correct for Electrical Dark: No (JAZA3692)
Strobe/Lamp Enabled: Yes (JAZA3692)
Correct for Detector Non-linearity: No (JAZA3692)
Correct for Stray Light: No (JAZA3692)
Number of Pixels in Processed Spectrum: 2048
>>>>>Begin Processed Spectral Data<<<<<
W	D	R	S	P
190.244385	0.000000	0.000000	0.000000	0.000000
190.627136	0.000000	0.000000	0.000000	0.000000
191.009842	1044.463989	1105.903076	978.473938	-107.407280
191.392532	964.820801	1023.984375	994.402588	50.000000
191.775177	1033.086426	971.647400	1035.361938	-3.703693
192.157791	1092.250000	1023.984375	983.024963	160.000061
192.540390	1117.280762	1112.729614	1071.770264	999.978516
192.922943	1119.556274	1058.117188	1103.627563	25.926022
193.305481	1064.943726	1151.413574	1115.005249	57.894775
193.687958	1089.974487	1037.637451	1078.596802	21.739262
194.070419	1162.791138	1089.974487	1053.566162	150.000000
194.452866	1060.392700	1130.933838	1135.484863	106.451591
194.835251	1115.005249	1117.280762	1051.290649	-2800.010742
195.217621	1049.015137	1049.015137	1103.627563	0.000000
195.599960	1033.086426	1105.903076	992.127075	-56.249981
195.982254	1158.240112	1094.525513	1023.984375	210.714249
196.364517	1094.525513	1144.586914	1028.535400	-131.818344
196.746750	1101.352051	1167.342163	1058.117188	-65.517181
197.128952	1119.556274	1060.392700	1130.933838	-19.230690
197.511139	1137.760376	1055.841675	1083.147949	66.666618
197.893280	1101.352051	1021.708862	1064.943726	45.714298
198.275391	1117.280762	1076.321289	1089.974487	66.666565
198.657471	1128.658325	1069.494751	1103.627563	42.307724
199.039520	989.851563	1108.178589	1037.637451	40.384594
199.421539	1089.974487	1087.698975	969.371887	5300.018555
199.803513	1099.076538	1039.912964	1046.739624	88.461380
200.185471	1017.157776	1140.035889	1076.321289	48.148129
200.567383	1053.566162	1124.107300	1069.494751	22.580566
200.949265	1087.698975	1094.525513	1001.229126	-1266.671997
201.331131	1042.188477	1128.658325	1023.984375	-21.052542
201.712967	1049.015137	1069.494751	1026.259888	-111.111710
202.094742	1105.903076	1115.005249	1021.708862	-924.990295
202.476517	1128.658325	1135.484863	1094.525513	-500.001801
202.858231	1128.658325	1055.841675	1153.689087	-34.375053
203.239944	1071.770264	1144.586914	1058.117188	-18.749937
203.621582	1137.760376	1026.259888	1069.494751	61.224506
204.003235	1108.178589	1037.637451	1074.045776	48.387104
204.384827	1060.392700	1053.566162	985.300537	1100.003540
204.766388	1055.841675	1142.311401	1064.943726	10.526286
205.147934	1092.250000	1105.903076	1030.810913	-450.001801
205.529449	1064.943726	1162.791138	1049.015137	-16.279009
205.910904	1140.035889	1124.107300	1019.433350	757.145142
206.292343	1037.637451	1151.413574	1108.178589	61.999947
206.673767	1044.463989	1112.729614	1074.045776	43.333359
207.055115	1044.463989	1137.760376	1094.525513	53.658588
207.436462	1105.903076	1201.474976	1137.760376	33.333332
207.817780	1078.596802	1119.556274	1049.015137	-72.221794
208.199051	1142.311401	1089.974487	1074.045776	130.434952
208.580307	1076.321289	1140.035889	1044.463989	-50.000000
208.961517	1094.525513	1064.943726	1037.637451	192.307724
209.342712	1060.392700	1151.413574	1083.147949	25.000034
209.723846	1074.045776	1112.729614	1012.606750	-158.823502
210.104965	1053.566162	1062.668213	1058.117188	50.000000
210.486069	1074.045776	1096.801025	1037.637451	-159.999680
210.867111	1074.045776	1117.280762	1021.708862	-121.052231
211.248123	1085.423462	1112.729614	989.851563	-350.001343
211.629120	1069.494751	1146.862427	1039.912964	-38.235332
212.010071	980.749451	1094.525513	1012.606750	28.000002
212.390991	1026.259888	1119.556274	1089.974487	68.292679
212.771881	1058.117188	1171.893188	1053.566162	-3.999987
213.152756	1062.668213	1046.739624	1062.668213	-0.000000
213.533569	998.953613	1085.423462	1064.943726	76.315750
213.914368	1030.810913	1087.698975	1087.698975	100.000000
214.295135	1067.219238	1108.178589	1021.708862	-111.111076
214.675858	1087.698975	1126.382813	1019.433350	-176.470657
215.056549	1103.627563	1151.413574	1010.331238	-195.237732
215.437225	1010.331238	1103.627563	1074.045776	68.292656
215.817841	1101.352051	1080.872437	1060.392700	200.000595
216.198441	1019.433350	1142.311401	1023.984375	3.703693
216.579025	1119.556274	1074.045776	944.341125	384.999420
216.959549	1112.729614	1112.729614	1049.015137	0.000000
217.340057	1021.708862	1115.005249	1053.566162	34.146339
217.720535	1105.903076	1028.535400	1023.984375	105.882332
218.100967	1083.147949	1060.392700	985.300537	429.999298
218.481369	1096.801025	1049.015137	1035.361938	128.571609
218.861740	1019.433350	1067.219238	1076.321289	119.047569
219.242065	1060.392700	1103.627563	955.718750	-242.105423
219.622391	1064.943726	1089.974487	1055.841675	-36.363461
220.002670	1055.841675	1137.760376	1071.770264	19.444387
220.382919	1092.250000	1128.658325	1064.943726	-75.000084
220.763123	1049.015137	1187.821899	1037.637451	-8.196780
221.143295	1028.535400	1121.831787	1121.831787	100.000000
221.523453	1037.637451	1110.454102	1099.076538	84.375053
221.903549	1135.484863	1087.698975	1085.423462	104.761894
222.283630	1096.801025	1055.841675	1128.658325	-77.777847
222.663696	1085.423462	1051.290649	1092.250000	-19.999928
223.043701	1144.586914	1119.556274	1046.739624	390.910065
223.423676	1096.801025	1112.729614	987.576050	-685.716614
223.803635	1026.259888	1071.770264	1008.055725	-40.000027
224.183548	1046.739624	1117.280762	983.024963	-90.322701
224.563431	1083.147949	1096.801025	1017.157776	-483.335571
224.943283	1087.698975	1108.178589	973.922913	-555.557617
225.323105	1130.933838	1105.903076	1058.117188	290.908661
225.702881	1023.984375	1096.801025	1053.566162	40.625031
226.082642	1030.810913	1135.484863	1119.556274	84.782661
226.462357	1042.188477	1178.719727	1076.321289	25.000000
226.842041	1083.147949	1099.076538	1074.045776	-57.143623
227.221695	1133.209351	1092.250000	1110.454102	55.555687
227.601318	1062.668213	1133.209351	1112.729614	70.967667
227.980911	960.269775	1187.821899	1115.005249	68.000015
228.360474	1092.250000	1187.821899	1089.974487	-2.380943
228.739990	1033.086426	1167.342163	1124.107300	67.796638
229.119476	1124.107300	1240.158813	1074.045776	-43.137329
229.498932	1092.250000	1265.189575	1055.841675	-21.052628
229.878372	1105.903076	1299.322388	1046.739624	-30.588182
230.257736	1080.872437	1299.322388	1128.658325	21.874983
230.637115	998.953613	1363.036987	1078.596802	21.874987
231.016449	1071.770264	1374.414551	1078.596802	2.255631
231.395737	1089.974487	1385.792114	1003.504700	-29.230776
231.774994	1067.219238	1235.607788	1060.392700	-4.054039
232.154221	1023.984375	1267.465088	1064.943726	16.822420
232.533417	1030.810913	1242.434326	1124.107300	44.086040
232.912582	1115.005249	1246.985352	1076.321289	-29.310448
233.291702	1026.259888	1274.291626	957.994263	-27.522940
233.670792	1103.627563	1281.118164	1071.770264	-17.948725
234.049866	1121.831787	1258.363037	1019.433350	-75.000000
234.428894	1001.229126	1237.883301	1014.882263	5.769236
234.807892	1119.556274	1253.812012	1092.250000	-20.339001
235.186874	1076.321289	1319.802124	1112.729614	14.953261
235.565781	1083.147949	1308.424438	976.198425	-47.474781
235.944687	1003.504700	1363.036987	1110.454102	29.746815
236.323547	1083.147949	1269.740601	1023.984375	-31.707344
236.702377	1083.147949	1317.526489	1130.933838	20.388338
237.081177	1103.627563	1367.588013	1076.321289	-10.344835
237.459946	1060.392700	1338.006226	962.545288	-35.245911
237.838669	1069.494751	1315.250977	1096.801025	11.111122
238.217361	1046.739624	1237.883301	1012.606750	-17.857182
238.596039	1042.188477	1281.118164	1001.229126	-17.142847
238.974670	1067.219238	1340.281738	1001.229126	-24.166670
239.353271	1039.912964	1235.607788	1071.770264	16.279072
239.731842	1096.801025	1363.036987	1135.484863	14.529907
240.110367	1121.831787	1196.923950	1005.780212	-154.545517
240.488876	1044.463989	1392.618774	1044.463989	0.000000
240.867340	1028.535400	1356.210449	1049.015137	6.250014
241.245789	1105.903076	1479.088501	1096.801025	-2.439016
241.624176	1115.005249	1485.915039	1092.250000	-6.134982
242.002548	1069.494751	1479.088501	1051.290649	-4.444428
242.380890	998.953613	1558.731689	1064.943726	11.788620
242.759186	1076.321289	1642.926025	1142.311401	11.646586
243.137451	1010.331238	1847.722900	1158.240112	17.663046
243.515686	1035.361938	1890.957764	1064.943726	3.457449
243.893890	1069.494751	1909.161987	1124.107300	6.504070
244.272049	1028.535400	1888.682251	1067.219238	4.497353
244.650192	1058.117188	1802.212524	1055.841675	-0.305809
245.028290	1023.984375	1704.365112	1130.933838	15.719061
245.406357	1060.392700	1686.160889	1062.668213	0.363635
245.784393	1005.780212	1747.599976	1064.943726	7.975457
246.162384	1035.361938	1617.895264	1044.463989	1.562494
246.540359	1026.259888	1649.752563	1115.005249	14.233585
246.918289	1078.596802	1824.967651	1046.739624	-4.268277
247.296204	1096.801025	1988.805176	1105.903076	1.020405
247.674057	1178.719727	2220.908203	1192.372925	1.310051
248.051895	1137.760376	2521.277100	1240.158813	7.401316
248.429703	1062.668213	2598.644775	1301.597900	15.555555
248.807465	1099.076538	2471.215576	1276.567139	12.935322
249.185196	1096.801025	2471.215576	1171.893188	5.463574
249.562897	1092.250000	2232.285889	1212.852539	10.578837
249.940567	1126.382813	2164.020264	1160.515625	3.289474
250.318192	1112.729614	1959.223389	1176.444214	7.526884
250.695801	1030.810913	1879.580200	1231.056763	23.592495
251.073349	1028.535400	1840.896362	1160.515625	16.246500
251.450882	1092.250000	1793.110352	1119.556274	3.896108
251.828400	1099.076538	1752.151001	1149.138062	7.665515
252.205872	1087.698975	1772.630737	1115.005249	3.986715
252.583313	1053.566162	1845.447388	1194.648438	17.816090
252.960693	1028.535400	1947.845825	1194.648438	18.069309
253.338074	1092.250000	2016.111450	1062.668213	-3.201972
253.715408	1117.280762	1966.049927	1199.199463	9.651470
254.092682	1037.637451	1872.753662	1149.138062	13.351508
254.469955	1076.321289	1806.763550	1151.413574	10.280386
254.847198	1017.157776	1686.160889	1140.035889	18.367346
255.224365	1099.076538	1747.599976	1142.311401	6.666662
255.601563	1085.423462	1736.222412	1171.893188	13.286703
255.978683	1103.627563	1708.916138	1121.831787	3.007528
256.355743	1033.086426	1765.804199	1183.270874	20.496902
256.732819	1078.596802	1743.048950	1149.138062	10.616454
257.109894	1023.984375	1795.385864	1155.964600	17.109148
257.486877	1105.903076	1745.324463	1115.005249	1.423501
257.863831	1083.147949	1799.937012	1142.311401	8.253956
258.240753	1019.433350	1929.641602	1117.280762	10.750003
258.617645	1096.801025	1975.152100	1212.852539	13.212429
258.994507	1099.076538	2047.968750	1142.311401	4.556351
259.371307	1089.974487	2220.908203	1140.035889	4.426555
259.748108	1089.974487	2200.428711	1240.158813	13.524585
260.124878	1080.872437	2616.848877	1149.138062	4.444445
260.501617	1085.423462	2928.595215	1190.097412	5.679012
260.878296	1064.943726	3208.484375	1256.087524	8.917200
261.254944	1119.556274	3390.525879	1315.250977	8.617230
261.631561	1058.117188	3203.933350	1322.077637	12.301167
262.008179	1096.801025	2876.258301	1292.495850	10.997444
262.384735	1058.117188	2523.552490	1196.923950	9.472050
262.761261	1076.321289	2298.276123	1192.372925	9.497211
263.137695	1083.147949	2218.632813	1169.617676	7.615225
263.514191	1071.770264	2189.051025	1128.658325	5.091653
263.890594	1012.606750	2168.571289	1224.230225	18.307089
264.267029	1074.045776	2177.673340	1165.066650	8.247427
264.643341	1117.280762	2202.704102	1124.107300	0.628929
265.019653	1062.668213	2145.816162	1126.382813	5.882354
265.395935	1083.147949	2175.397949	1153.689087	6.458333
265.772217	985.300537	2125.336426	1089.974487	9.181637
266.148407	1042.188477	2052.519775	1169.617676	12.612616
266.524597	1085.423462	2236.836914	1249.260864	14.229241
266.900726	1062.668213	2243.663574	1162.791138	8.477842
267.276855	1085.423462	2339.235352	1135.484863	3.992736
267.652924	1083.147949	2446.184814	1199.199463	8.514188
268.028992	1028.535400	2462.113525	1165.066650	9.523809
268.404999	1094.525513	2466.664551	1171.893188	5.638472
268.781006	1128.658325	2361.990479	1160.515625	2.583027
269.156921	985.300537	2268.694336	1126.382813	10.992907
269.532837	1105.903076	2336.959961	1144.586914	3.142327
269.908661	1010.331238	2459.837891	1144.586914	9.262164
270.284546	1053.566162	2380.194824	1187.821899	10.120070
270.660339	1039.912964	2491.695313	1171.893188	9.090910
271.036133	1071.770264	2484.868652	1208.301514	9.661836
271.411835	1076.321289	2573.614014	1196.923950	8.054715
271.787537	1035.361938	2853.503174	1260.638550	12.390491
272.163239	1030.810913	2965.003662	1265.189575	12.117647
272.538849	1046.739624	3090.157227	1251.536499	10.022272
272.914459	1010.331238	3144.769775	1269.740601	12.153518
273.290070	1092.250000	2944.523926	1206.026001	6.142504
273.665588	1130.933838	2919.493164	1231.056763	5.597965
274.041046	1055.841675	2949.074951	1212.852539	8.293265
274.416565	1044.463989	2798.890625	1203.750488	9.079120
274.791962	1071.770264	2751.104736	1203.750488	7.859079
275.167389	1092.250000	2687.390137	1228.781250	8.559201
275.542755	1028.535400	2682.839111	1187.821899	9.628613
275.918060	1014.882263	2689.665527	1231.056763	12.907611
276.293365	1053.566162	2698.767578	1221.954712	10.235133
276.668640	1076.321289	2619.124512	1171.893188	6.194692
277.043854	1094.525513	2655.532715	1126.382813	2.040817
277.419037	1092.250000	2757.931152	1267.465088	10.519125
277.794189	1008.055725	2735.176025	1221.954712	12.384718
278.169312	1087.698975	2757.931152	1244.709839	9.400541
278.544373	1014.882263	2776.135498	1210.577026	11.111109
278.919464	1051.290649	2735.176025	1262.914063	12.567567
279.294464	1124.107300	2803.441650	1256.087524	7.859080
279.669464	1071.770264	2771.584229	1167.342163	5.622492
280.044403	1014.882263	2801.166016	1319.802124	17.070068
280.419312	1010.331238	2810.268311	1258.363037	13.780026
280.794189	1087.698975	2848.952148	1253.812012	9.431525
281.169037	1069.494751	2990.034424	1265.189575	10.189574
281.543854	1071.770264	3008.238525	1301.597900	11.868392
281.918671	1110.454102	3076.504150	1262.914063	7.754633
282.293365	1067.219238	3224.413086	1231.056763	7.594937
282.668091	1062.668213	3210.759766	1210.577026	6.885592
283.042786	1112.729614	3379.148438	1201.474976	3.915664
283.417419	1176.444214	3470.169189	1287.944824	4.861115
283.792053	1105.903076	3279.025391	1258.363037	7.015710
284.166595	1080.872437	3192.555664	1242.434326	7.650859
284.541138	1033.086426	3165.249512	1335.730713	14.194238
284.915619	1021.708862	3115.187988	1299.322388	13.260870
285.290100	1169.617676	3358.668701	1347.108276	8.108107
285.664520	1017.157776	3390.525879	1351.659302	14.093959
286.038940	1071.770264	3465.618164	1328.904175	10.741447
286.413300	1042.188477	3476.995850	1333.455200	11.962619
286.787628	1058.117188	3679.517090	1347.108276	11.024303
287.161896	1133.209351	3843.354736	1433.578125	11.083123
287.536194	1012.606750	3718.200928	1378.965576	13.540790
287.910400	1060.392700	3702.272461	1435.853638	14.211885
288.284607	1103.627563	3379.148438	1454.057739	15.399998
288.658752	1017.157776	3306.331787	1365.312500	15.208749
289.032867	1042.188477	3210.759766	1353.934937	14.375661
289.406921	1085.423462	3356.393066	1338.006226	11.122243
289.781006	1030.810913	3372.321777	1317.526489	12.244897
290.154999	1035.361938	3269.923340	1338.006226	13.543789
290.529022	1087.698975	3520.230713	1413.098389	13.376986
290.902954	1101.352051	3690.894775	1381.241089	10.808434
291.276825	1074.045776	3843.354736	1547.354126	17.091208
291.650757	1085.423462	3877.487549	1424.476074	12.143440
292.024597	1101.352051	3922.997803	1561.007324	16.290325
292.398407	1103.627563	3597.598389	1467.710938	14.598542
292.772156	1108.178589	3545.261475	1474.537476	15.032680
293.145905	1058.117188	3404.179199	1483.639526	18.137728
293.519592	1058.117188	3395.077148	1399.445313	14.605647
293.893280	1196.923950	3527.057129	1442.680176	10.546874
294.266907	1076.321289	3595.322754	1424.476074	13.821142
294.640533	989.851563	3638.557861	1463.159912	17.869415
295.014069	978.473938	3918.446777	1529.150024	18.730652
295.387604	1128.658325	4032.222900	1517.772339	13.401253
295.761078	1060.392700	4004.916504	1626.997314	19.242657
296.134552	1135.484863	4041.324951	1551.905151	14.330462
296.507996	1062.668213	4050.427002	1572.384888	17.060167
296.881378	1051.290649	4045.875977	1590.588989	18.009115
297.254730	1076.321289	4289.356934	1547.354126	14.660056
297.628021	962.545288	4607.929688	1647.477051	18.789015
298.001282	1058.117188	4612.480469	1720.293701	18.629961
298.374573	1026.259888	4805.899902	1624.721802	15.833833
298.747803	1101.352051	4644.337891	1649.752563	15.478484
299.121002	1042.188477	4323.489746	1592.864502	16.782246
299.494141	1119.556274	4143.723145	1633.823975	17.005268
299.867188	1074.045776	4107.314941	1622.446289	18.079521
300.240265	1078.596802	3941.202148	1597.415649	18.124008
300.613312	1071.770264	3820.599365	1533.701050	16.804638
300.986328	1089.974487	3818.323975	1583.762451	18.098412
301.359314	1087.698975	3704.547852	1599.691162	19.565218
301.732239	1085.423462	3734.129639	1551.905151	17.611683
302.105103	1014.882263	3781.915527	1529.150024	18.585529
302.477997	1119.556274	3706.823486	1533.701050	16.007036
302.850830	1094.525513	3761.435791	1485.915039	14.675767
303.223602	1053.566162	3806.946289	1545.078613	17.851238
303.596375	1042.188477	3831.977051	1485.915039	15.905383
303.969116	1094.525513	3649.935303	1497.292725	15.761356
304.341766	1099.076538	3552.087891	1385.792114	11.688311
304.714478	1089.974487	3536.159424	1533.701050	18.139534
305.087067	1089.974487	3533.883789	1488.190552	16.294226
305.459656	1069.494751	3645.384277	1495.017212	16.519436
305.832214	1076.321289	3563.465576	1492.741699	16.742912
306.204681	1162.791138	3554.363525	1442.680176	11.703139
306.577148	1030.810913	3506.577637	1438.129150	16.452208
306.949646	1085.423462	3713.649902	1408.547363	12.294370
307.322021	1074.045776	3668.139648	1472.261963	15.350879
307.694397	1039.912964	3579.394287	1474.537476	17.114695
308.066742	1069.494751	3595.322754	1413.098389	13.603603
308.439026	992.127075	3818.323975	1447.231201	16.103058
308.811279	1146.862427	3761.435791	1447.231201	11.488253
309.183502	1019.433350	3948.028564	1547.354126	18.026417
309.555695	983.024963	3954.855225	1513.221313	17.840734
309.927887	1033.086426	3991.263428	1529.150024	16.769234
310.299988	1121.831787	4070.906738	1565.558350	15.046296
310.672058	1103.627563	4064.080078	1474.537476	12.528825
311.044128	1069.494751	4239.295410	1558.731689	15.434312
311.416168	1092.250000	4255.224121	1576.935913	15.323739
311.788147	1085.423462	4159.651855	1513.221313	13.915617
312.160065	1124.107300	4089.110840	1558.731689	14.658479
312.531982	1096.801025	4123.243652	1581.486938	16.015038
312.903870	1089.974487	3954.855225	1488.190552	13.899917
313.275696	1019.433350	3893.416016	1508.670288	17.022961
313.647491	1037.637451	4004.916504	1465.435425	14.417180
314.019318	1153.689087	3763.711426	1515.496826	13.862247
314.391022	1044.463989	3765.986816	1499.568237	16.722410
314.762726	1046.739624	3913.895752	1579.211426	18.571426
315.134369	1074.045776	4023.120850	1520.047852	15.123455
315.505981	1089.974487	4287.081055	1558.731689	14.661921
315.877594	1037.637451	4321.213867	1565.558350	16.077620
316.249146	1099.076538	4127.794922	1547.354126	14.800900
316.620636	1030.810913	3927.548828	1515.496826	16.732130
316.992157	1105.903076	3809.221924	1451.782227	12.794612
317.363586	1035.361938	3836.528076	1353.934937	11.372871
317.735016	1089.974487	3690.894775	1454.057739	13.998246
318.106354	1055.841675	3781.915527	1476.812988	15.442404
318.477722	1044.463989	3784.191162	1397.169800	12.873757
