Jaz Data File
++++++++++++++++++++++++++++++++++++
Date: Wed Feb 07 06:49:04 2024
User: jaz
Dark Spectrum Present: Yes
Reference Spectrum Present: Yes
Processed Spectrum Present: Yes
Spectrometers: JAZA3692
Integration Time (usec): 40000 (JAZA3692)
Spectra Averaged: 1 (JAZA3692)
Boxcar Smoothing: 0 (JAZA3692)
Correct for Electrical Dark: No (JAZA3692)
Strobe/Lamp Enabled: Yes (JAZA3692)
Correct for Detector Non-linearity: No (JAZA3692)
Correct for Stray Light: No (JAZA3692)
Number of Pixels in Processed Spectrum: 2048
>>>>>Begin Processed Spectral Data<<<<<
W	D	R	S	P
190.244385	0.000000	0.000000	0.000000	0.000000
190.627136	0.000000	0.000000	0.000000	0.000000
191.009842	971.647400	973.922913	1005.780212	1500.005371
191.392532	1005.780212	971.647400	923.861450	240.000031
191.775177	1010.331238	1008.055725	976.198425	1500.005371
192.157791	998.953613	969.371887	1001.229126	-7.692292
192.540390	1026.259888	987.576050	957.994263	176.470657
192.922943	1017.157776	1030.810913	1021.708862	33.333630
193.305481	1058.117188	939.790100	980.749451	65.384636
193.687958	1105.903076	1035.361938	1039.912964	93.548409
194.070419	1085.423462	1010.331238	1044.463989	54.545559
194.452866	1103.627563	1171.893188	1003.504700	-146.666595
194.835251	1012.606750	998.953613	985.300537	199.999557
195.217621	1055.841675	1064.943726	1030.810913	-275.001343
195.599960	1071.770264	1035.361938	917.034912	424.999908
195.982254	1076.321289	1089.974487	1017.157776	-433.330811
196.364517	1028.535400	1039.912964	1055.841675	240.001068
196.746750	1033.086426	1076.321289	1039.912964	15.789429
197.128952	1021.708862	1035.361938	1078.596802	416.667572
197.511139	1051.290649	1074.045776	973.922913	-340.001343
197.893280	983.024963	1087.698975	1089.974487	102.173904
198.275391	1042.188477	1035.361938	1028.535400	200.000000
198.657471	1089.974487	1037.637451	1064.943726	47.826096
199.039520	1046.739624	1069.494751	926.136963	-530.002136
199.421539	1017.157776	1064.943726	1080.872437	133.333466
199.803513	1083.147949	973.922913	1021.708862	56.250004
200.185471	1008.055725	1012.606750	1019.433350	250.001343
200.567383	1033.086426	1071.770264	957.994263	-194.117661
200.949265	1030.810913	1005.780212	1089.974487	-236.364029
201.331131	1012.606750	1083.147949	1049.015137	51.612938
201.712967	1026.259888	1044.463989	980.749451	-250.001007
202.094742	1012.606750	1035.361938	1060.392700	210.000244
202.476517	1058.117188	1046.739624	1042.188477	140.001068
202.858231	1039.912964	1005.780212	1030.810913	26.666618
203.239944	996.678101	1021.708862	1014.882263	72.727165
203.621582	998.953613	1021.708862	969.371887	-129.999573
204.003235	1076.321289	1033.086426	946.616638	300.000153
204.384827	1049.015137	1033.086426	1010.331238	242.856430
204.766388	1096.801025	985.300537	976.198425	108.163292
205.147934	992.127075	1042.188477	985.300537	-13.636331
205.529449	1026.259888	1035.361938	1030.810913	50.000000
205.910904	1028.535400	1001.229126	1051.290649	-83.333405
206.292343	1001.229126	1005.780212	998.953613	-49.999329
206.673767	1021.708862	1003.504700	942.065613	437.500214
207.055115	1044.463989	1094.525513	985.300537	-118.181488
207.436462	1023.984375	1005.780212	1039.912964	-87.499710
207.817780	1028.535400	1051.290649	1067.219238	169.999619
208.199051	1037.637451	1055.841675	1069.494751	174.999496
208.580307	1053.566162	1026.259888	978.473938	274.999878
208.961517	983.024963	1012.606750	1019.433350	123.077034
209.342712	1026.259888	1058.117188	1014.882263	-35.714340
209.723846	1001.229126	1030.810913	946.616638	-184.615234
210.104965	1078.596802	1055.841675	951.167725	560.001587
210.486069	998.953613	1094.525513	994.402588	-4.761887
210.867111	1008.055725	1069.494751	1060.392700	85.185226
211.248123	992.127075	1055.841675	1051.290649	92.857170
211.629120	1003.504700	1019.433350	987.576050	-100.000000
212.010071	1026.259888	1053.566162	1067.219238	149.999771
212.390991	1001.229126	1099.076538	1003.504700	2.325635
212.771881	1012.606750	1026.259888	1001.229126	-83.333405
213.152756	1012.606750	1044.463989	980.749451	-100.000191
213.533569	969.371887	1044.463989	1001.229126	42.424221
213.914368	1003.504700	1051.290649	948.892151	-114.285789
214.295135	1051.290649	1099.076538	1033.086426	-38.095398
214.675858	1033.086426	980.749451	1030.810913	4.347811
215.056549	1019.433350	964.820801	996.678101	41.666702
215.437225	996.678101	1046.739624	985.300537	-22.727161
215.817841	937.514587	1019.433350	1053.566162	141.666656
216.198441	921.585938	1074.045776	992.127075	46.268669
216.579025	964.820801	1049.015137	1001.229126	43.243198
216.959549	1019.433350	1042.188477	983.024963	-160.000809
217.340057	1033.086426	987.576050	992.127075	90.000031
217.720535	996.678101	1021.708862	1012.606750	63.636295
218.100967	957.994263	1069.494751	1033.086426	67.346939
218.481369	1035.361938	1069.494751	994.402588	-119.999931
218.861740	1133.209351	1042.188477	951.167725	199.999863
219.242065	1010.331238	1112.729614	1060.392700	48.888924
219.622391	1051.290649	1089.974487	1060.392700	23.529337
220.002670	1060.392700	1115.005249	996.678101	-116.666595
220.382919	1001.229126	1153.689087	1030.810913	19.402987
220.763123	1096.801025	1039.912964	1021.708862	131.999863
221.143295	1028.535400	1096.801025	1012.606750	-23.333340
221.523453	1060.392700	1099.076538	1039.912964	-52.941326
221.903549	1008.055725	1101.352051	1026.259888	19.512197
222.283630	1051.290649	1026.259888	989.851563	245.454330
222.663696	1010.331238	1046.739624	1021.708862	31.250010
223.043701	989.851563	1039.912964	1003.504700	27.272783
223.423676	967.096313	1044.463989	969.371887	2.941246
223.803635	1051.290649	1067.219238	1058.117188	42.857143
224.183548	1010.331238	1135.484863	978.473938	-25.454556
224.563431	1049.015137	1062.668213	1005.780212	-316.667999
224.943283	1071.770264	1035.361938	1010.331238	168.749939
225.323105	1010.331238	1078.596802	1001.229126	-13.333387
225.702881	994.402588	973.922913	1039.912964	-222.222153
226.082642	1014.882263	1046.739624	1019.433350	14.285824
226.462357	1026.259888	1028.535400	992.127075	-1500.005371
226.842041	1026.259888	1083.147949	1046.739624	36.000061
227.221695	1035.361938	1089.974487	994.402588	-74.999886
227.601318	1010.331238	1087.698975	994.402588	-20.588232
227.980911	969.371887	1105.903076	1010.331238	29.999996
228.360474	996.678101	1078.596802	1069.494751	88.888924
228.739990	1042.188477	1085.423462	969.371887	-168.420532
229.119476	998.953613	1183.270874	1069.494751	38.271584
229.498932	1044.463989	1178.719727	1051.290649	5.084818
229.878372	1060.392700	1096.801025	1019.433350	-112.499962
230.257736	969.371887	1294.771362	996.678101	8.391597
230.637115	978.473938	1217.403687	992.127075	5.714289
231.016449	930.687988	1267.465088	987.576050	16.891903
231.395737	976.198425	1176.444214	1028.535400	26.136368
231.774994	1037.637451	1215.128052	1042.188477	2.564094
232.154221	987.576050	1190.097412	978.473938	-4.494396
232.533417	1008.055725	1242.434326	1058.117188	21.359230
232.912582	1037.637451	1192.372925	1014.882263	-14.705864
233.291702	1033.086426	1180.995239	1035.361938	1.538456
233.670792	989.851563	1153.689087	976.198425	-8.333340
234.049866	1026.259888	1124.107300	939.790100	-88.372078
234.428894	1014.882263	1105.903076	960.269775	-60.000000
234.807892	992.127075	1187.821899	1026.259888	17.441858
235.186874	1008.055725	1155.964600	1058.117188	33.846153
235.565781	1044.463989	1262.914063	985.300537	-27.083282
235.944687	985.300537	1240.158813	1044.463989	23.214256
236.323547	992.127075	1160.515625	983.024963	-5.405422
236.702377	1026.259888	1215.128052	1046.739624	10.843403
237.081177	1062.668213	1224.230225	1076.321289	8.450672
237.459946	1028.535400	1187.821899	1005.780212	-14.285698
237.838669	1003.504700	1269.740601	1060.392700	21.367517
238.217361	1035.361938	1176.444214	1017.157776	-12.903224
238.596039	1017.157776	1224.230225	1035.361938	8.791204
238.974670	1053.566162	1176.444214	1017.157776	-29.629690
239.353271	1028.535400	1190.097412	1067.219238	23.943647
239.731842	1128.658325	1265.189575	1028.535400	-73.333336
240.110367	1058.117188	1285.669312	1021.708862	-15.999993
240.488876	1023.984375	1290.220337	1096.801025	27.350418
240.867340	1035.361938	1283.393677	1083.147949	19.266087
241.245789	955.718750	1335.730713	1030.810913	19.760473
241.624176	930.687988	1374.414551	1033.086426	23.076923
242.002548	1026.259888	1353.934937	1010.331238	-4.861112
242.380890	1026.259888	1415.373901	1008.055725	-4.678362
242.759186	948.892151	1501.843750	1035.361938	15.637858
243.137451	1049.015137	1501.843750	1105.903076	12.562797
243.515686	1044.463989	1581.486938	1062.668213	3.389841
243.893890	998.953613	1686.160889	994.402588	-0.662249
244.272049	1094.525513	1561.007324	1035.361938	-12.682933
244.650192	1014.882263	1474.537476	1099.076538	18.316832
245.028290	1112.729614	1483.639526	1014.882263	-26.380354
245.406357	951.167725	1501.843750	1094.525513	26.033054
245.784393	985.300537	1451.782227	1014.882263	6.341455
246.162384	1026.259888	1481.364014	992.127075	-7.500000
246.540359	1087.698975	1504.119263	1078.596802	-2.185814
246.918289	1037.637451	1649.752563	1062.668213	4.089225
247.296204	1033.086426	1713.467163	1110.454102	11.371233
247.674057	992.127075	1954.672363	1092.250000	10.401893
248.051895	955.718750	2175.397949	1060.392700	8.582088
248.429703	1012.606750	2120.785400	1115.005249	9.240252
248.807465	985.300537	2104.856689	1133.209351	13.211380
249.185196	1067.219238	2034.315552	1094.525513	2.823532
249.562897	1033.086426	1827.243164	1105.903076	9.169053
249.940567	998.953613	1774.906250	1149.138062	19.354847
250.318192	1076.321289	1681.609863	1140.035889	10.526318
250.695801	1085.423462	1674.783325	1080.872437	-0.772198
251.073349	1014.882263	1558.731689	1069.494751	10.041840
251.450882	1044.463989	1611.068726	1117.280762	12.851423
251.828400	1053.566162	1492.741699	1033.086426	-4.663223
252.205872	1051.290649	1540.527588	1108.178589	11.627892
252.583313	1067.219238	1638.375000	1117.280762	8.764951
252.960693	1014.882263	1729.395752	1108.178589	13.057322
253.338074	1005.780212	1733.946899	1121.831787	15.937501
253.715408	1023.984375	1820.416626	1119.556274	12.000004
254.092682	1074.045776	1679.334351	1064.943726	-1.503754
254.469955	1051.290649	1592.864502	1101.352051	9.243689
254.847198	1001.229126	1601.966675	1096.801025	15.909094
255.224365	1035.361938	1517.772339	1071.770264	7.547168
255.601563	1133.209351	1483.639526	1076.321289	-16.233780
255.978683	928.412476	1595.140137	1085.423462	23.549494
256.355743	1062.668213	1567.833862	1014.882263	-9.459461
256.732819	1049.015137	1547.354126	1064.943726	3.196336
257.109894	996.678101	1510.945801	1074.045776	15.044242
257.486877	957.994263	1565.558350	1108.178589	24.719091
257.863831	976.198425	1636.099487	1149.138062	26.206903
258.240753	1060.392700	1704.365112	1146.862427	13.427551
258.617645	989.851563	1638.375000	1126.382813	21.052631
258.994507	996.678101	1731.671387	1087.698975	12.383905
259.371307	1053.566162	1724.844727	1149.138062	14.237293
259.748108	1001.229126	1915.988525	1108.178589	11.691540
260.124878	1008.055725	2100.305664	1208.301514	18.333330
260.501617	1001.229126	2336.959961	1201.474976	14.991482
260.878296	1074.045776	2564.511963	1194.648438	8.091607
261.254944	1074.045776	2650.981689	1180.995239	6.782106
261.631561	976.198425	2519.001465	1278.842651	19.616518
262.008179	1023.984375	2323.306641	1103.627563	6.129595
262.384735	1028.535400	2095.754639	1174.168701	13.646052
262.761261	987.576050	1952.396851	1133.209351	15.094337
263.137695	1033.086426	1865.927002	1162.791138	15.573774
263.514191	1067.219238	1843.171875	1128.658325	7.917892
263.890594	1083.147949	1831.794189	1076.321289	-0.911867
264.267029	1030.810913	1831.794189	1087.698975	7.102278
264.643341	973.922913	1925.090576	1121.831787	15.550242
265.019653	1023.984375	1845.447388	1076.321289	6.371183
265.395935	1044.463989	1692.987427	1058.117188	2.105274
265.772217	1085.423462	1777.181763	998.953613	-12.500009
266.148407	989.851563	1829.518677	1071.770264	9.756093
266.524597	1033.086426	1806.763550	1142.311401	14.117643
266.900726	1026.259888	1888.682251	1051.290649	2.902379
267.276855	1008.055725	1906.886475	1128.658325	13.417721
267.652924	1110.454102	2079.825928	1108.178589	-0.234741
268.028992	1019.433350	2020.662476	1144.586914	12.499992
268.404999	983.024963	2050.244141	1142.311401	14.925372
268.781006	1044.463989	2077.550537	1176.444214	12.775331
269.156921	1067.219238	2104.856689	1103.627563	3.508771
269.532837	996.678101	2034.315552	1137.760376	13.596490
269.908661	989.851563	2072.999512	1126.382813	12.605042
270.284546	1051.290649	1993.356201	1092.250000	4.347824
270.660339	1033.086426	2025.213501	1124.107300	9.174316
271.036133	1003.504700	2168.571289	1128.658325	10.742186
271.411835	1026.259888	2143.540527	1089.974487	5.702650
271.787537	967.096313	2305.102539	1049.015137	6.122455
272.163239	1014.882263	2402.949951	1133.209351	8.524590
272.538849	973.922913	2484.868652	1158.240112	12.198796
272.914459	1019.433350	2564.511963	1162.791138	9.278349
273.290070	1067.219238	2282.347412	1146.862427	6.554304
273.665588	973.922913	2191.326416	1162.791138	15.514019
274.041046	1019.433350	2280.071777	1103.627563	6.678697
274.416565	971.647400	2211.806152	1117.280762	11.743123
274.791962	996.678101	2302.827148	1128.658325	10.104530
275.167389	1064.943726	2157.193604	1121.831787	5.208338
275.542755	1014.882263	2198.153076	1119.556274	8.846159
275.918060	1017.157776	2175.397949	1124.107300	9.233794
276.293365	1035.361938	2161.744873	1099.076538	5.656567
276.668640	1103.627563	2202.704102	1192.372925	8.074539
277.043854	987.576050	2366.541748	1158.240112	12.376237
277.419037	1037.637451	2311.929199	1153.689087	9.107148
277.794189	1021.708862	2252.765625	1089.974487	5.545287
278.169312	1017.157776	2348.337402	1167.342163	11.282052
278.544373	1028.535400	2323.306641	1224.230225	15.114240
278.919464	1010.331238	2348.337402	1212.852539	15.136052
279.294464	960.269775	2311.929199	1160.515625	14.814816
279.669464	1026.259888	2259.592041	1144.586914	9.594092
280.044403	989.851563	2202.704102	1144.586914	12.757969
280.419312	1046.739624	2293.724854	1094.525513	3.832114
280.794189	1014.882263	2400.674561	1224.230225	15.106735
281.169037	1074.045776	2348.337402	1174.168701	7.857144
281.543854	1037.637451	2407.500977	1237.883301	14.617942
281.918671	1017.157776	2434.807373	1208.301514	13.483144
282.293365	992.127075	2557.685303	1226.505737	14.970932
282.668091	1021.708862	2632.777588	1242.434326	13.700562
283.042786	1028.535400	2767.033203	1215.128052	10.732982
283.417419	1021.708862	2676.012451	1262.914063	14.580467
283.792053	1142.311401	2707.869873	1144.586914	0.145348
284.166595	1023.984375	2632.777588	1162.791138	8.628005
284.541138	1060.392700	2580.440674	1237.883301	11.676644
284.915619	1069.494751	2484.868652	1206.026001	9.646302
285.290100	980.749451	2589.542725	1206.026001	14.002829
285.664520	1064.943726	2739.727051	1196.923950	7.880436
286.038940	1140.035889	2830.747803	1290.220337	8.882912
286.413300	942.065613	2958.177002	1249.260864	15.237019
286.787628	1035.361938	2871.707275	1324.353149	15.737302
287.161896	1046.739624	2905.840088	1342.557251	15.911869
287.536194	1037.637451	2974.105713	1333.455200	15.276148
287.910400	1005.780212	2885.360352	1324.353149	16.949154
288.284607	1005.780212	2716.971924	1278.842651	15.957443
288.658752	1003.504700	2516.726074	1262.914063	17.142855
289.032867	976.198425	2569.062988	1251.536499	17.285719
289.406921	985.300537	2641.879639	1265.189575	16.895603
289.781006	1039.912964	2705.594238	1317.526489	16.666666
290.154999	1126.382813	2710.145264	1319.802124	12.212646
290.529022	1008.055725	2719.247314	1338.006226	19.281914
290.902954	989.851563	2930.870850	1376.690063	19.929657
291.276825	1064.943726	2965.003662	1401.720825	17.724552
291.650757	1014.882263	3060.575439	1424.476074	20.022251
292.024597	1071.770264	3037.820313	1410.822876	17.245371
292.398407	996.678101	2978.656738	1426.751587	21.699200
292.772156	1023.984375	2903.564453	1424.476074	21.307508
293.145905	1017.157776	2819.370361	1388.067749	20.580811
293.519592	1001.229126	2691.941162	1353.934937	20.861378
293.893280	937.514587	2687.390137	1363.036987	24.317295
294.266907	967.096313	2801.166016	1442.680176	25.930523
294.640533	1030.810913	2871.707275	1419.924927	21.137203
295.014069	978.473938	3069.677490	1479.088501	23.939064
295.387604	955.718750	3249.443604	1531.425537	25.099209
295.761078	973.922913	3151.596191	1538.252075	25.914316
296.134552	1014.882263	3062.851074	1565.558350	26.888891
296.507996	1001.229126	3172.075928	1469.986450	21.593294
296.881378	1010.331238	3178.902588	1517.772339	23.399788
297.254730	1010.331238	3383.699463	1558.731689	23.106422
297.628021	962.545288	3545.261475	1579.211426	23.876650
298.001282	937.514587	3684.068115	1640.650513	25.600664
298.374573	1046.739624	3579.394287	1640.650513	23.450132
298.747803	1037.637451	3458.791504	1608.793213	23.590227
299.121002	1060.392700	3401.903564	1667.956787	25.947525
299.494141	973.922913	3185.729004	1517.772339	24.588476
299.867188	1010.331238	3074.228516	1481.364014	22.822493
300.240265	983.024963	3281.301025	1531.425537	23.861387
300.613312	1005.780212	3076.504150	1444.955688	21.208790
300.986328	985.300537	2990.034424	1483.639526	24.858112
301.359314	1023.984375	2889.911377	1495.017212	25.243904
301.732239	1026.259888	2965.003662	1538.252075	26.408451
302.105103	1039.912964	2999.136475	1456.333252	21.254353
302.477997	1026.259888	2896.738037	1463.159912	23.357666
302.850830	1053.566162	3021.891602	1449.506714	20.115604
303.223602	1017.157776	2801.166016	1549.629639	29.846939
303.596375	994.402588	2917.217773	1479.088501	25.207098
303.969116	1005.780212	2710.145264	1438.129150	25.367157
304.341766	978.473938	2805.717041	1465.435425	26.650064
304.714478	998.953613	2839.849854	1454.057739	24.721878
305.087067	1039.912964	2748.829102	1415.373901	21.970705
305.459656	1010.331238	2848.952148	1485.915039	25.866333
305.832214	1021.708862	2710.145264	1469.986450	26.549866
306.204681	1058.117188	2794.339600	1433.578125	21.625164
306.577148	980.749451	2723.798340	1365.312500	22.062666
306.949646	1003.504700	2864.880615	1515.496826	27.506109
307.322021	1021.708862	2812.543701	1410.822876	21.728079
307.694397	978.473938	2801.166016	1469.986450	26.966293
308.066742	1010.331238	2830.747803	1388.067749	20.750004
308.439026	948.892151	2903.564453	1447.231201	25.494761
308.811279	1067.219238	3015.064941	1413.098389	17.757010
309.183502	967.096313	3033.269287	1547.354126	28.083702
309.555695	985.300537	3065.126465	1561.007324	27.680527
309.927887	962.545288	3081.055176	1520.047852	26.315788
310.299988	1012.606750	3078.779541	1465.435425	21.916302
310.672058	1080.872437	3231.239502	1554.180664	22.010576
311.044128	1094.525513	3224.413086	1497.292725	18.910255
311.416168	1087.698975	3265.372314	1629.272949	24.869385
311.788147	951.167725	3106.085938	1556.456177	28.088697
312.160065	992.127075	3215.310791	1545.078613	24.872059
312.531982	1042.188477	3206.208740	1558.731689	23.869610
312.903870	1019.433350	3147.045166	1597.415649	27.165777
313.275696	1037.637451	3062.851074	1510.945801	23.370787
313.647491	1060.392700	3035.544678	1549.629639	24.769585
314.019318	1051.290649	3092.432861	1565.558350	25.195093
314.391022	946.616638	2969.554688	1419.924927	23.397074
314.762726	967.096313	3181.177979	1499.568237	24.049337
315.134369	1030.810913	3231.239502	1497.292725	21.199587
315.505981	980.749451	3304.056152	1599.691162	26.640553
315.877594	1046.739624	3358.668701	1556.456177	22.047239
316.249146	1019.433350	3242.617188	1467.710938	20.163767
316.620636	1014.882263	3071.953125	1497.292725	23.451330
316.992157	1019.433350	3135.667725	1458.608887	20.752689
317.363586	1028.535400	2955.901611	1456.333252	22.195982
317.735016	1049.015137	2792.063965	1460.884399	23.629244
318.106354	1028.535400	2958.177002	1429.027100	20.754719
318.477722	1051.290649	2951.350586	1463.159912	21.676645
318.849060	1008.055725	2996.860840	1454.057739	22.425627
319.220306	1026.259888	2978.656738	1442.680176	21.328671
