Jaz Data File
++++++++++++++++++++++++++++++++++++
Date: Wed Feb 07 06:49:16 2024
User: jaz
Dark Spectrum Present: Yes
Reference Spectrum Present: Yes
Processed Spectrum Present: Yes
Spectrometers: JAZA3692
Integration Time (usec): 40000 (JAZA3692)
Spectra Averaged: 1 (JAZA3692)
Boxcar Smoothing: 0 (JAZA3692)
Correct for Electrical Dark: No (JAZA3692)
Strobe/Lamp Enabled: Yes (JAZA3692)
Correct for Detector Non-linearity: No (JAZA3692)
Correct for Stray Light: No (JAZA3692)
Number of Pixels in Processed Spectrum: 2048
>>>>>Begin Processed Spectral Data<<<<<
W	D	R	S	P
190.244385	0.000000	0.000000	0.000000	0.000000
190.627136	0.000000	0.000000	0.000000	0.000000
191.009842	971.647400	973.922913	978.473938	300.000000
191.392532	1005.780212	971.647400	935.239075	206.666641
191.775177	1010.331238	1008.055725	942.065613	3000.010742
192.157791	998.953613	969.371887	1017.157776	-61.538540
192.540390	1026.259888	987.576050	996.678101	76.470665
192.922943	1017.157776	1030.810913	946.616638	-516.666138
193.305481	1058.117188	939.790100	1039.912964	15.384663
193.687958	1105.903076	1035.361938	964.820801	200.000000
194.070419	1085.423462	1010.331238	1005.780212	106.060585
194.452866	1103.627563	1171.893188	1074.045776	-43.333359
194.835251	1012.606750	998.953613	1017.157776	-33.333183
195.217621	1055.841675	1064.943726	1085.423462	325.001343
195.599960	1071.770264	1035.361938	1058.117188	37.499874
195.982254	1076.321289	1089.974487	989.851563	-633.329468
196.364517	1028.535400	1039.912964	983.024963	-400.001617
196.746750	1033.086426	1076.321289	976.198425	-131.578995
197.128952	1021.708862	1035.361938	1087.698975	483.335114
197.511139	1051.290649	1074.045776	1108.178589	250.000534
197.893280	983.024963	1087.698975	1087.698975	100.000000
198.275391	1042.188477	1035.361938	1053.566162	-166.668457
198.657471	1089.974487	1037.637451	1076.321289	26.087069
199.039520	1046.739624	1069.494751	1028.535400	-80.000534
199.421539	1017.157776	1064.943726	964.820801	-109.523773
199.803513	1083.147949	973.922913	1071.770264	10.416738
200.185471	1008.055725	1012.606750	1019.433350	250.001343
200.567383	1033.086426	1071.770264	1062.668213	76.470665
200.949265	1030.810913	1005.780212	1028.535400	9.090887
201.331131	1012.606750	1083.147949	992.127075	-29.032219
201.712967	1026.259888	1044.463989	1071.770264	250.000671
202.094742	1012.606750	1035.361938	971.647400	-180.000061
202.476517	1058.117188	1046.739624	980.749451	680.002686
202.858231	1039.912964	1005.780212	1030.810913	26.666618
203.239944	996.678101	1021.708862	980.749451	-63.636295
203.621582	998.953613	1021.708862	994.402588	-19.999893
204.003235	1076.321289	1033.086426	939.790100	315.789581
204.384827	1049.015137	1033.086426	978.473938	442.855652
204.766388	1096.801025	985.300537	957.994263	124.489822
205.147934	992.127075	1042.188477	1060.392700	136.363785
205.529449	1026.259888	1035.361938	926.136963	-1100.004028
205.910904	1028.535400	1001.229126	1037.637451	-33.333183
206.292343	1001.229126	1005.780212	1008.055725	149.999329
206.673767	1021.708862	1003.504700	989.851563	175.000076
207.055115	1044.463989	1094.525513	1026.259888	-36.363461
207.436462	1023.984375	1005.780212	1042.188477	-99.999664
207.817780	1028.535400	1051.290649	1042.188477	59.999680
208.199051	1037.637451	1055.841675	992.127075	-249.998993
208.580307	1053.566162	1026.259888	998.953613	200.000000
208.961517	983.024963	1012.606750	1030.810913	161.538406
209.342712	1026.259888	1058.117188	1101.352051	235.714142
209.723846	1001.229126	1030.810913	994.402588	-23.076828
210.104965	1078.596802	1055.841675	973.922913	460.001343
210.486069	998.953613	1094.525513	978.473938	-21.428553
210.867111	1008.055725	1069.494751	1037.637451	48.148106
211.248123	992.127075	1055.841675	1035.361938	67.857071
211.629120	1003.504700	1019.433350	946.616638	-357.143036
212.010071	1026.259888	1053.566162	1005.780212	-74.999886
212.390991	1001.229126	1099.076538	878.351013	-125.581360
212.771881	1012.606750	1026.259888	978.473938	-249.999771
213.152756	1012.606750	1044.463989	1080.872437	214.286255
213.533569	969.371887	1044.463989	1014.882263	60.606075
213.914368	1003.504700	1051.290649	957.994263	-95.238113
214.295135	1051.290649	1099.076538	1003.504700	-100.000130
214.675858	1033.086426	980.749451	989.851563	82.608643
215.056549	1019.433350	964.820801	951.167725	124.999886
215.437225	996.678101	1046.739624	1026.259888	59.090866
215.817841	937.514587	1019.433350	994.402588	69.444412
216.198441	921.585938	1074.045776	1030.810913	71.641800
216.579025	964.820801	1049.015137	992.127075	32.432438
216.959549	1019.433350	1042.188477	1026.259888	30.000000
217.340057	1033.086426	987.576050	1005.780212	59.999973
217.720535	996.678101	1021.708862	1026.259888	118.181732
218.100967	957.994263	1069.494751	973.922913	14.285722
218.481369	1035.361938	1069.494751	1003.504700	-93.333176
218.861740	1133.209351	1042.188477	1001.229126	144.999954
219.242065	1010.331238	1112.729614	1030.810913	20.000000
219.622391	1051.290649	1089.974487	1003.504700	-123.529495
220.002670	1060.392700	1115.005249	957.994263	-187.499832
220.382919	1001.229126	1153.689087	976.198425	-16.417885
220.763123	1096.801025	1039.912964	994.402588	179.999878
221.143295	1028.535400	1096.801025	960.269775	-100.000000
221.523453	1060.392700	1099.076538	935.239075	-323.529510
221.903549	1008.055725	1101.352051	971.647400	-39.024395
222.283630	1051.290649	1026.259888	992.127075	236.363464
222.663696	1010.331238	1046.739624	1030.810913	56.249886
223.043701	989.851563	1039.912964	1062.668213	145.454681
223.423676	967.096313	1044.463989	998.953613	41.176498
223.803635	1051.290649	1067.219238	1010.331238	-257.144012
224.183548	1010.331238	1135.484863	1051.290649	32.727306
224.563431	1049.015137	1062.668213	969.371887	-583.335571
224.943283	1071.770264	1035.361938	1028.535400	118.749939
225.323105	1010.331238	1078.596802	992.127075	-26.666685
225.702881	994.402588	973.922913	1026.259888	-155.555695
226.082642	1014.882263	1046.739624	987.576050	-85.713982
226.462357	1026.259888	1028.535400	1067.219238	1800.005371
226.842041	1026.259888	1083.147949	1028.535400	3.999983
227.221695	1035.361938	1089.974487	1019.433350	-29.166536
227.601318	1010.331238	1087.698975	1060.392700	64.705864
227.980911	969.371887	1105.903076	957.994263	-8.333352
228.360474	996.678101	1078.596802	1021.708862	30.555613
228.739990	1042.188477	1085.423462	987.576050	-126.315361
229.119476	998.953613	1183.270874	969.371887	-16.049353
229.498932	1044.463989	1178.719727	971.647400	-54.237228
229.878372	1060.392700	1096.801025	1044.463989	-43.750187
230.257736	969.371887	1294.771362	964.820801	-1.398615
230.637115	978.473938	1217.403687	1005.780212	11.428578
231.016449	930.687988	1267.465088	1028.535400	29.054058
231.395737	976.198425	1176.444214	1035.361938	29.545446
231.774994	1037.637451	1215.128052	953.443237	-47.435871
232.154221	987.576050	1190.097412	998.953613	5.617957
232.533417	1008.055725	1242.434326	992.127075	-6.796120
232.912582	1037.637451	1192.372925	1019.433350	-11.764660
233.291702	1033.086426	1180.995239	983.024963	-33.846165
233.670792	989.851563	1153.689087	1069.494751	48.611080
234.049866	1026.259888	1124.107300	1026.259888	0.000000
234.428894	1014.882263	1105.903076	1001.229126	-15.000017
234.807892	992.127075	1187.821899	989.851563	-1.162786
235.186874	1008.055725	1155.964600	1019.433350	7.692320
235.565781	1044.463989	1262.914063	1046.739624	1.041718
235.944687	985.300537	1240.158813	953.443237	-12.500006
236.323547	992.127075	1160.515625	1044.463989	31.081041
236.702377	1026.259888	1215.128052	1023.984375	-1.204815
237.081177	1062.668213	1224.230225	998.953613	-39.436623
237.459946	1028.535400	1187.821899	1030.810913	1.428566
237.838669	1003.504700	1269.740601	980.749451	-8.547025
238.217361	1035.361938	1176.444214	969.371887	-46.774162
238.596039	1017.157776	1224.230225	994.402588	-10.988998
238.974670	1053.566162	1176.444214	1083.147949	24.074102
239.353271	1028.535400	1190.097412	1053.566162	15.492975
239.731842	1128.658325	1265.189575	953.443237	-128.333328
240.110367	1058.117188	1285.669312	1035.361938	-10.000016
240.488876	1023.984375	1290.220337	942.065613	-30.769232
240.867340	1035.361938	1283.393677	1058.117188	9.174330
241.245789	955.718750	1335.730713	1028.535400	19.161673
241.624176	930.687988	1374.414551	1039.912964	24.615379
242.002548	1026.259888	1353.934937	1023.984375	-0.694442
242.380890	1026.259888	1415.373901	1012.606750	-3.508775
242.759186	948.892151	1501.843750	1035.361938	15.637858
243.137451	1049.015137	1501.843750	1101.352051	11.557775
243.515686	1044.463989	1581.486938	971.647400	-13.559307
243.893890	998.953613	1686.160889	1026.259888	3.973514
244.272049	1094.525513	1561.007324	1010.331238	-18.048780
244.650192	1014.882263	1474.537476	994.402588	-4.455443
245.028290	1112.729614	1483.639526	1037.637451	-20.245392
245.406357	951.167725	1501.843750	1067.219238	21.074371
245.784393	985.300537	1451.782227	1049.015137	13.658543
246.162384	1026.259888	1481.364014	1044.463989	3.999986
246.540359	1087.698975	1504.119263	1121.831787	8.196722
246.918289	1037.637451	1649.752563	1121.831787	13.754658
247.296204	1033.086426	1713.467163	1064.943726	4.682275
247.674057	992.127075	1954.672363	1094.525513	10.638298
248.051895	955.718750	2175.397949	1074.045776	9.701488
248.429703	1012.606750	2120.785400	1160.515625	13.347024
248.807465	985.300537	2104.856689	1169.617676	16.463411
249.185196	1067.219238	2034.315552	1094.525513	2.823532
249.562897	1033.086426	1827.243164	1099.076538	8.309457
249.940567	998.953613	1774.906250	1060.392700	7.917892
250.318192	1076.321289	1681.609863	1089.974487	2.255651
250.695801	1085.423462	1674.783325	1062.668213	-3.861011
251.073349	1014.882263	1558.731689	1030.810913	2.928871
251.450882	1044.463989	1611.068726	1055.841675	2.008046
251.828400	1053.566162	1492.741699	1058.117188	1.036266
252.205872	1051.290649	1540.527588	1074.045776	4.651146
252.583313	1067.219238	1638.375000	1108.178589	7.171310
252.960693	1014.882263	1729.395752	1092.250000	10.828031
253.338074	1005.780212	1733.946899	1137.760376	18.124994
253.715408	1023.984375	1820.416626	1187.821899	20.571432
254.092682	1074.045776	1679.334351	1117.280762	7.142871
254.469955	1051.290649	1592.864502	1126.382813	13.865544
254.847198	1001.229126	1601.966675	1062.668213	10.227276
255.224365	1035.361938	1517.772339	1030.810913	-0.943393
255.601563	1133.209351	1483.639526	1083.147949	-14.285699
255.978683	928.412476	1595.140137	1076.321289	22.184292
256.355743	1062.668213	1567.833862	1076.321289	2.702693
256.732819	1049.015137	1547.354126	1058.117188	1.826478
257.109894	996.678101	1510.945801	1071.770264	14.601766
257.486877	957.994263	1565.558350	1103.627563	23.970032
257.863831	976.198425	1636.099487	1126.382813	22.758621
258.240753	1060.392700	1704.365112	1058.117188	-0.353356
258.617645	989.851563	1638.375000	1096.801025	16.491226
258.994507	996.678101	1731.671387	1060.392700	8.668733
259.371307	1053.566162	1724.844727	1087.698975	5.084746
259.748108	1001.229126	1915.988525	1124.107300	13.432840
260.124878	1008.055725	2100.305664	1174.168701	15.208329
260.501617	1001.229126	2336.959961	1185.546387	13.798983
260.878296	1074.045776	2564.511963	1210.577026	9.160305
261.254944	1074.045776	2650.981689	1206.026001	8.369410
261.631561	976.198425	2519.001465	1183.270874	13.421834
262.008179	1023.984375	2323.306641	1135.484863	8.581434
262.384735	1028.535400	2095.754639	1110.454102	7.675902
262.761261	987.576050	1952.396851	1078.596802	9.433954
263.137695	1033.086426	1865.927002	1046.739624	1.639353
263.514191	1067.219238	1843.171875	1151.413574	10.850448
263.890594	1083.147949	1831.794189	1135.484863	6.990874
264.267029	1030.810913	1831.794189	1119.556274	11.079553
264.643341	973.922913	1925.090576	1058.117188	8.851675
265.019653	1023.984375	1845.447388	1039.912964	1.939051
265.395935	1044.463989	1692.987427	1149.138062	16.140368
265.772217	1085.423462	1777.181763	1096.801025	1.644731
266.148407	989.851563	1829.518677	1053.566162	7.588078
266.524597	1033.086426	1806.763550	1092.250000	7.647063
266.900726	1026.259888	1888.682251	1101.352051	8.707122
267.276855	1008.055725	1906.886475	1108.178589	11.139235
267.652924	1110.454102	2079.825928	1096.801025	-1.408446
268.028992	1019.433350	2020.662476	1142.311401	12.272720
268.404999	983.024963	2050.244141	1196.923950	20.042646
268.781006	1044.463989	2077.550537	1089.974487	4.405294
269.156921	1067.219238	2104.856689	1160.515625	8.991232
269.532837	996.678101	2034.315552	1144.586914	14.254383
269.908661	989.851563	2072.999512	1021.708862	2.941177
270.284546	1051.290649	1993.356201	1062.668213	1.207725
270.660339	1033.086426	2025.213501	1105.903076	7.339448
271.036133	1003.504700	2168.571289	1167.342163	14.062497
271.411835	1026.259888	2143.540527	1035.361938	0.814661
271.787537	967.096313	2305.102539	1169.617676	15.136055
272.163239	1014.882263	2402.949951	1135.484863	8.688525
272.538849	973.922913	2484.868652	1165.066650	12.650602
272.914459	1019.433350	2564.511963	1171.893188	9.867449
273.290070	1067.219238	2282.347412	1155.964600	7.303374
273.665588	973.922913	2191.326416	1151.413574	14.579443
274.041046	1019.433350	2280.071777	1153.689087	10.649821
274.416565	971.647400	2211.806152	1101.352051	10.458714
274.791962	996.678101	2302.827148	1119.556274	9.407669
275.167389	1064.943726	2157.193604	1133.209351	6.250000
275.542755	1014.882263	2198.153076	1203.750488	15.961539
275.918060	1017.157776	2175.397949	1130.933838	9.823183
276.293365	1035.361938	2161.744873	1115.005249	7.070714
276.668640	1103.627563	2202.704102	1108.178589	0.414077
277.043854	987.576050	2366.541748	1115.005249	9.240926
277.419037	1037.637451	2311.929199	1099.076538	4.821430
277.794189	1021.708862	2252.765625	1185.546387	13.308690
278.169312	1017.157776	2348.337402	1117.280762	7.521373
278.544373	1028.535400	2323.306641	1076.321289	3.690682
278.919464	1010.331238	2348.337402	1108.178589	7.312922
279.294464	960.269775	2311.929199	1130.933838	12.626262
279.669464	1026.259888	2259.592041	1128.658325	8.302584
280.044403	989.851563	2202.704102	1112.729614	10.131327
280.419312	1046.739624	2293.724854	1046.739624	0.000000
280.794189	1014.882263	2400.674561	1153.689087	10.016424
281.169037	1074.045776	2348.337402	1228.781250	12.142862
281.543854	1037.637451	2407.500977	1167.342163	9.468440
281.918671	1017.157776	2434.807373	1137.760376	8.507222
282.293365	992.127075	2557.685303	1212.852539	14.098835
282.668091	1021.708862	2632.777588	1169.617676	9.180789
283.042786	1028.535400	2767.033203	1206.026001	10.209423
283.417419	1021.708862	2676.012451	1160.515625	8.390646
283.792053	1142.311401	2707.869873	1194.648438	3.343027
284.166595	1023.984375	2632.777588	1115.005249	5.657711
284.541138	1060.392700	2580.440674	1196.923950	8.982036
284.915619	1069.494751	2484.868652	1217.403687	10.450167
285.290100	980.749451	2589.542725	1249.260864	16.690237
285.664520	1064.943726	2739.727051	1221.954712	9.375003
286.038940	1140.035889	2830.747803	1201.474976	3.633918
286.413300	942.065613	2958.177002	1278.842651	16.704288
286.787628	1035.361938	2871.707275	1260.638550	12.267660
287.161896	1046.739624	2905.840088	1303.873413	13.831086
287.536194	1037.637451	2974.105713	1265.189575	11.750883
287.910400	1005.780212	2885.360352	1317.526489	16.585953
288.284607	1005.780212	2716.971924	1312.975464	17.952124
288.658752	1003.504700	2516.726074	1269.740601	17.593981
289.032867	976.198425	2569.062988	1281.118164	19.142855
289.406921	985.300537	2641.879639	1256.087524	16.346155
289.781006	1039.912964	2705.594238	1240.158813	12.021859
290.154999	1126.382813	2710.145264	1303.873413	11.206896
290.529022	1008.055725	2719.247314	1385.792114	22.074465
290.902954	989.851563	2930.870850	1324.353149	17.233295
291.276825	1064.943726	2965.003662	1515.496826	23.712574
291.650757	1014.882263	3060.575439	1408.547363	19.243605
292.024597	1071.770264	3037.820313	1442.680176	18.865742
292.398407	996.678101	2978.656738	1419.924927	21.354763
292.772156	1023.984375	2903.564453	1385.792114	19.249392
293.145905	1017.157776	2819.370361	1438.129150	23.358585
293.519592	1001.229126	2691.941162	1417.649414	24.629877
293.893280	937.514587	2687.390137	1444.955688	28.998697
294.266907	967.096313	2801.166016	1429.027100	25.186108
294.640533	1030.810913	2871.707275	1444.955688	22.496908
295.014069	978.473938	3069.677490	1458.608887	22.959742
295.387604	955.718750	3249.443604	1463.159912	22.123018
295.761078	973.922913	3151.596191	1497.292725	24.033440
296.134552	1014.882263	3062.851074	1495.017212	23.444447
296.507996	1001.229126	3172.075928	1504.119263	23.165623
296.881378	1010.331238	3178.902588	1558.731689	25.288561
297.254730	1010.331238	3383.699463	1631.548462	26.174500
297.628021	962.545288	3545.261475	1677.058838	27.665197
298.001282	937.514587	3684.068115	1606.517700	24.357914
298.374573	1046.739624	3579.394287	1597.415649	21.743036
298.747803	1037.637451	3458.791504	1535.976563	20.582710
299.121002	1060.392700	3401.903564	1608.793213	23.420799
299.494141	973.922913	3185.729004	1501.843750	23.868315
299.867188	1010.331238	3074.228516	1485.915039	23.042999
300.240265	983.024963	3281.301025	1535.976563	24.059406
300.613312	1005.780212	3076.504150	1476.812988	22.747252
300.986328	985.300537	2990.034424	1547.354126	28.036320
301.359314	1023.984375	2889.911377	1451.782227	22.926826
301.732239	1026.259888	2965.003662	1444.955688	21.596243
302.105103	1039.912964	2999.136475	1447.231201	20.789780
302.477997	1026.259888	2896.738037	1501.843750	25.425791
302.850830	1053.566162	3021.891602	1444.955688	19.884392
303.223602	1017.157776	2801.166016	1469.986450	25.382654
303.596375	994.402588	2917.217773	1417.649414	22.011831
303.969116	1005.780212	2710.145264	1410.822876	23.765018
304.341766	978.473938	2805.717041	1483.639526	27.646326
304.714478	998.953613	2839.849854	1474.537476	25.834366
305.087067	1039.912964	2748.829102	1451.782227	24.101198
305.459656	1010.331238	2848.952148	1408.547363	21.658415
305.832214	1021.708862	2710.145264	1472.261963	26.684635
306.204681	1058.117188	2794.339600	1410.822876	20.314545
306.577148	980.749451	2723.798340	1433.578125	25.979116
306.949646	1003.504700	2864.880615	1508.670288	27.139362
307.322021	1021.708862	2812.543701	1426.751587	22.617537
307.694397	978.473938	2801.166016	1485.915039	27.840199
308.066742	1010.331238	2830.747803	1413.098389	22.125000
308.439026	948.892151	2903.564453	1533.701050	29.918512
308.811279	1067.219238	3015.064941	1499.568237	22.196266
309.183502	967.096313	3033.269287	1440.404663	22.907490
309.555695	985.300537	3065.126465	1458.608887	22.757114
309.927887	962.545288	3081.055176	1469.986450	23.952742
310.299988	1012.606750	3078.779541	1458.608887	21.585907
310.672058	1080.872437	3231.239502	1517.772339	20.317455
311.044128	1094.525513	3224.413086	1579.211426	22.756407
311.416168	1087.698975	3265.372314	1586.037964	22.884010
311.788147	951.167725	3106.085938	1510.945801	25.976767
312.160065	992.127075	3215.310791	1551.905151	25.179121
312.531982	1042.188477	3206.208740	1545.078613	23.238699
312.903870	1019.433350	3147.045166	1456.333252	20.534756
313.275696	1037.637451	3062.851074	1456.333252	20.674154
313.647491	1060.392700	3035.544678	1467.710938	20.622122
314.019318	1051.290649	3092.432861	1479.088501	20.958748
314.391022	946.616638	2969.554688	1474.537476	26.096739
314.762726	967.096313	3181.177979	1522.323364	25.077082
315.134369	1030.810913	3231.239502	1483.639526	20.579109
315.505981	980.749451	3304.056152	1495.017212	22.135164
315.877594	1046.739624	3358.668701	1476.812988	18.602358
316.249146	1019.433350	3242.617188	1561.007324	24.360287
316.620636	1014.882263	3071.953125	1545.078613	25.774336
316.992157	1019.433350	3135.667725	1465.435425	21.075268
317.363586	1028.535400	2955.901611	1326.628662	15.466353
317.735016	1049.015137	2792.063965	1472.261963	24.281982
318.106354	1028.535400	2958.177002	1417.649414	20.165092
318.477722	1051.290649	2951.350586	1476.812988	22.395206
318.849060	1008.055725	2996.860840	1492.741699	24.370712
319.220306	1026.259888	2978.656738	1474.537476	22.960373
