Jaz Data File
++++++++++++++++++++++++++++++++++++
Date: Wed Feb 07 06:51:20 2024
User: jaz
Dark Spectrum Present: Yes
Reference Spectrum Present: Yes
Processed Spectrum Present: Yes
Spectrometers: JAZA3692
Integration Time (usec): 42900 (JAZA3692)
Spectra Averaged: 1 (JAZA3692)
Boxcar Smoothing: 0 (JAZA3692)
Correct for Electrical Dark: No (JAZA3692)
Strobe/Lamp Enabled: Yes (JAZA3692)
Correct for Detector Non-linearity: No (JAZA3692)
Correct for Stray Light: No (JAZA3692)
Number of Pixels in Processed Spectrum: 2048
>>>>>Begin Processed Spectral Data<<<<<
W	D	R	S	P
190.244385	0.000000	0.000000	0.000000	0.000000
190.627136	0.000000	0.000000	0.000000	0.000000
191.009842	907.932800	948.892151	944.341125	88.888924
191.392532	985.300537	1028.535400	921.585938	-147.368576
191.775177	917.034912	967.096313	985.300537	136.363785
192.157791	989.851563	903.381775	978.473938	13.157919
192.540390	992.127075	917.034912	971.647400	27.272720
192.922943	905.657288	1001.229126	946.616638	42.857132
193.305481	1003.504700	1035.361938	946.616638	-178.571854
193.687958	1010.331238	1023.984375	953.443237	-416.666138
194.070419	948.892151	1019.433350	983.024963	48.387062
194.452866	1064.943726	928.412476	998.953613	48.333340
194.835251	1030.810913	1012.606750	985.300537	249.999832
195.217621	1008.055725	976.198425	1051.290649	-135.714340
195.599960	1039.912964	1003.504700	953.443237	237.500275
195.982254	1080.872437	976.198425	1042.188477	36.956604
196.364517	1033.086426	971.647400	978.473938	88.888924
196.746750	962.545288	1003.504700	1001.229126	94.444321
197.128952	1014.882263	994.402588	1010.331238	22.222157
197.511139	1067.219238	1001.229126	960.269775	162.068924
197.893280	992.127075	1010.331238	942.065613	-275.000092
198.275391	998.953613	935.239075	1014.882263	-25.000025
198.657471	1001.229126	1003.504700	1030.810913	1299.970459
199.039520	1049.015137	967.096313	971.647400	94.444397
199.421539	948.892151	1037.637451	957.994263	10.256444
199.803513	967.096313	973.922913	1023.984375	833.329468
200.185471	1001.229126	948.892151	1017.157776	-30.434793
200.567383	1010.331238	1010.331238	1001.229126	0.000000
200.949265	989.851563	989.851563	992.127075	0.000000
201.331131	930.687988	1044.463989	1071.770264	124.000031
201.712967	946.616638	1037.637451	989.851563	47.500042
202.094742	976.198425	1030.810913	1046.739624	129.166794
202.476517	980.749451	1026.259888	1039.912964	129.999878
202.858231	957.994263	1055.841675	978.473938	20.930216
203.239944	969.371887	994.402588	960.269775	-36.363792
203.621582	955.718750	935.239075	917.034912	188.888916
204.003235	937.514587	969.371887	973.922913	114.285660
204.384827	935.239075	1019.433350	1026.259888	108.108078
204.766388	937.514587	1017.157776	989.851563	65.714317
205.147934	985.300537	1039.912964	953.443237	-58.333427
205.529449	1021.708862	953.443237	976.198425	66.666695
205.910904	976.198425	1044.463989	921.585938	-80.000053
206.292343	948.892151	1019.433350	980.749451	45.161266
206.673767	930.687988	992.127075	1003.504700	118.518547
207.055115	998.953613	980.749451	955.718750	237.499878
207.436462	1010.331238	1012.606750	1001.229126	-400.002686
207.817780	1014.882263	1069.494751	910.208313	-191.666687
208.199051	967.096313	976.198425	960.269775	-74.999496
208.580307	994.402588	983.024963	939.790100	479.999023
208.961517	928.412476	971.647400	946.616638	42.105225
209.342712	983.024963	987.576050	983.024963	0.000000
209.723846	976.198425	989.851563	937.514587	-283.332947
210.104965	1096.801025	1069.494751	946.616638	549.999573
210.486069	955.718750	1074.045776	932.963501	-19.230812
210.867111	985.300537	1044.463989	978.473938	-11.538541
211.248123	962.545288	1046.739624	980.749451	21.621599
211.629120	962.545288	998.953613	973.922913	31.250063
212.010071	994.402588	1044.463989	1014.882263	40.909115
212.390991	951.167725	1026.259888	1033.086426	109.090881
212.771881	983.024963	923.861450	989.851563	-11.538529
213.152756	962.545288	992.127075	955.718750	-23.076828
213.533569	962.545288	944.341125	957.994263	24.999916
213.914368	930.687988	960.269775	1039.912964	369.230469
214.295135	989.851563	985.300537	1017.157776	-600.001343
214.675858	989.851563	928.412476	989.851563	-0.000000
215.056549	978.473938	992.127075	923.861450	-399.999542
215.437225	1019.433350	978.473938	1030.810913	-27.777653
215.817841	978.473938	1071.770264	932.963501	-48.780525
216.198441	1010.331238	985.300537	978.473938	127.272903
216.579025	928.412476	1028.535400	973.922913	45.454563
216.959549	1053.566162	1017.157776	912.483826	387.499573
217.340057	973.922913	1012.606750	960.269775	-35.294163
217.720535	1003.504700	1008.055725	905.657288	-2150.008057
218.100967	1003.504700	1001.229126	923.861450	3499.919434
218.481369	994.402588	987.576050	944.341125	733.335999
218.861740	1003.504700	1067.219238	930.687988	-114.285866
219.242065	955.718750	978.473938	978.473938	100.000000
219.622391	969.371887	1019.433350	1008.055725	77.272690
220.002670	994.402588	1012.606750	1021.708862	150.000168
220.382919	976.198425	962.545288	946.616638	216.666595
220.763123	932.963501	996.678101	887.453125	-71.428490
221.143295	937.514587	1014.882263	973.922913	47.058834
221.523453	992.127075	1005.780212	992.127075	0.000000
221.903549	957.994263	1003.504700	971.647400	30.000013
222.283630	1046.739624	1023.984375	976.198425	309.999664
222.663696	976.198425	1035.361938	930.687988	-76.923149
223.043701	923.861450	978.473938	980.749451	104.166656
223.423676	978.473938	1033.086426	962.545288	-29.166681
223.803635	967.096313	1012.606750	967.096313	0.000000
224.183548	928.412476	996.678101	971.647400	63.333374
224.563431	962.545288	1014.882263	948.892151	-26.086983
224.943283	946.616638	1008.055725	1023.984375	125.925919
225.323105	937.514587	1058.117188	978.473938	33.962246
225.702881	1008.055725	1033.086426	939.790100	-272.727570
226.082642	919.310425	1026.259888	1010.331238	85.106377
226.462357	1017.157776	1035.361938	1003.504700	-74.999748
226.842041	998.953613	967.096313	946.616638	164.285660
227.221695	926.136963	1019.433350	957.994263	34.146339
227.601318	937.514587	1021.708862	967.096313	35.135078
227.980911	989.851563	996.678101	923.861450	-966.670227
228.360474	976.198425	1021.708862	985.300537	20.000053
228.739990	1028.535400	1135.484863	926.136963	-95.744698
229.119476	971.647400	1124.107300	978.473938	4.477596
229.498932	1005.780212	1130.933838	998.953613	-5.454576
229.878372	996.678101	1187.821899	978.473938	-9.523805
230.257736	1008.055725	1212.852539	971.647400	-17.777779
230.637115	980.749451	1203.750488	1012.606750	14.285718
231.016449	992.127075	1128.658325	994.402588	1.666661
231.395737	903.381775	1121.831787	957.994263	24.999992
231.774994	937.514587	1014.882263	957.994263	26.470583
232.154221	964.820801	1146.862427	1008.055725	23.750021
232.533417	937.514587	1146.862427	983.024963	21.739119
232.912582	917.034912	1167.342163	1001.229126	33.636345
233.291702	928.412476	1115.005249	932.963501	2.439015
233.670792	996.678101	1119.556274	996.678101	0.000000
234.049866	907.932800	1133.209351	998.953613	40.404034
234.428894	957.994263	1176.444214	923.861450	-15.625004
234.807892	973.922913	1183.270874	1005.780212	15.217392
235.186874	985.300537	1133.209351	1028.535400	29.230755
235.565781	967.096313	1212.852539	1008.055725	16.666683
235.944687	1028.535400	1185.546387	926.136963	-65.217369
236.323547	948.892151	1256.087524	980.749451	10.370371
236.702377	926.136963	1201.474976	946.616638	7.438012
237.081177	980.749451	1174.168701	957.994263	-11.764697
237.459946	980.749451	1190.097412	946.616638	-16.304344
237.838669	942.065613	1165.066650	978.473938	16.326527
238.217361	928.412476	1256.087524	951.167725	6.944456
238.596039	994.402588	1208.301514	1017.157776	10.638290
238.974670	942.065613	1208.301514	969.371887	10.256421
239.353271	957.994263	1224.230225	928.412476	-11.111116
239.731842	980.749451	1240.158813	926.136963	-21.052628
240.110367	919.310425	1158.240112	926.136963	2.857133
240.488876	928.412476	1237.883301	971.647400	13.970598
240.867340	964.820801	1253.812012	957.994263	-2.362196
241.245789	1019.433350	1258.363037	939.790100	-33.333344
241.624176	969.371887	1228.781250	964.820801	-1.754403
242.002548	957.994263	1467.710938	1044.463989	16.964273
242.380890	1023.984375	1495.017212	1021.708862	-0.483090
242.759186	1019.433350	1533.701050	980.749451	-7.522133
243.137451	932.963501	1592.864502	1112.729614	27.241377
243.515686	971.647400	1658.854614	998.953613	3.973505
243.893890	964.820801	1658.854614	964.820801	0.000000
244.272049	967.096313	1517.772339	1078.596802	20.247929
244.650192	889.728638	1606.517700	1014.882263	17.460314
245.028290	905.657288	1506.394775	1046.739624	23.484856
245.406357	960.269775	1492.741699	1008.055725	8.974360
245.784393	955.718750	1447.231201	1026.259888	14.351851
246.162384	907.932800	1501.843750	1049.015137	23.754797
246.540359	948.892151	1592.864502	1044.463989	14.840984
246.918289	955.718750	1615.619751	1069.494751	17.241375
247.296204	989.851563	1756.702026	932.963501	-7.418404
247.674057	973.922913	2066.172852	969.371887	-0.416665
248.051895	976.198425	2243.663574	1089.974487	8.976663
248.429703	948.892151	2352.888428	1144.586914	13.938410
248.807465	1010.331238	2336.959961	1167.342163	11.835334
249.185196	1019.433350	2095.754639	1094.525513	6.976742
249.562897	964.820801	1893.233276	1055.841675	9.803926
249.940567	1001.229126	1840.896362	964.820801	-4.336042
250.318192	1021.708862	1779.457275	1017.157776	-0.600607
250.695801	994.402588	1649.752563	1014.882263	3.124998
251.073349	980.749451	1579.211426	1049.015137	11.406855
251.450882	955.718750	1501.843750	1028.535400	13.333330
251.828400	1053.566162	1524.598877	1014.882263	-8.212571
252.205872	987.576050	1565.558350	1010.331238	3.937004
252.583313	926.136963	1636.099487	962.545288	5.128204
252.960693	980.749451	1722.569214	1062.668213	11.042947
253.338074	955.718750	1913.713013	978.473938	2.375295
253.715408	1019.433350	1845.447388	1028.535400	1.101924
254.092682	923.861450	1665.681274	1033.086426	14.723923
254.469955	989.851563	1654.303589	983.024963	-1.027403
254.847198	937.514587	1574.660400	953.443237	2.500001
255.224365	1017.157776	1508.670288	1074.045776	11.574070
255.601563	910.208313	1506.394775	1035.361938	20.992363
255.978683	973.922913	1547.354126	1039.912964	11.507928
256.355743	976.198425	1499.568237	1046.739624	13.478271
256.732819	930.687988	1570.109375	1035.361938	16.370104
257.109894	944.341125	1549.629639	932.963501	-1.879703
257.486877	1005.780212	1576.935913	992.127075	-2.390440
257.863831	1028.535400	1683.885376	1035.361938	1.041663
258.240753	1008.055725	1672.507813	983.024963	-3.767128
258.617645	1017.157776	1692.987427	1044.463989	4.040399
258.994507	1003.504700	1799.937012	1062.668213	7.428568
259.371307	980.749451	1836.345337	1026.259888	5.319151
259.748108	985.300537	2125.336426	1058.117188	6.387224
260.124878	998.953613	2314.204590	1115.005249	8.823535
260.501617	898.830688	2500.797363	1124.107300	14.062503
260.878296	919.310425	2803.441650	1146.862427	12.077291
261.254944	951.167725	2889.911377	1167.342163	11.150233
261.631561	989.851563	2864.880615	1219.679199	12.257284
262.008179	946.616638	2521.277100	1080.872437	8.526016
262.384735	960.269775	2168.571289	1076.321289	9.604516
262.761261	973.922913	2018.386963	1101.352051	12.200433
263.137695	926.136963	2027.489014	1103.627563	16.115702
263.514191	928.412476	1934.192627	1058.117188	12.895930
263.890594	996.678101	1970.601074	1124.107300	13.084115
264.267029	944.341125	1909.161987	1021.708862	8.018870
264.643341	978.473938	1875.029175	1115.005249	15.228433
265.019653	942.065613	1845.447388	1039.912964	10.831229
265.395935	992.127075	1831.794189	1053.566162	7.317077
265.772217	1017.157776	1863.651489	955.718750	-7.258060
266.148407	953.443237	1829.518677	992.127075	4.415583
266.524597	992.127075	1970.601074	969.371887	-2.325579
266.900726	926.136963	2029.764526	1083.147949	14.226810
267.276855	967.096313	2004.733887	1046.739624	7.675446
267.652924	967.096313	2241.387939	1074.045776	8.392857
268.028992	953.443237	2168.571289	1035.361938	6.741570
268.404999	955.718750	2118.509766	1080.872437	10.763214
268.781006	894.279663	2111.683350	953.443237	4.859816
269.156921	980.749451	2125.336426	1074.045776	8.151092
269.532837	973.922913	2170.846924	1067.219238	7.794674
269.908661	953.443237	2086.652588	1064.943726	9.839355
270.284546	892.004150	2143.540527	1035.361938	11.454544
270.660339	1023.984375	2148.091553	1035.361938	1.012142
271.036133	937.514587	2141.265137	1124.107300	15.500946
271.411835	944.341125	2364.266113	1080.872437	9.615389
271.787537	969.371887	2448.460449	1080.872437	7.538463
272.163239	967.096313	2616.848877	1064.943726	5.931036
272.538849	1035.361938	2780.686523	1112.729614	4.432853
272.914459	987.576050	2812.543701	1151.413574	8.977558
273.290070	980.749451	2632.777588	1092.250000	6.749313
273.665588	944.341125	2491.695313	1101.352051	10.147058
274.041046	996.678101	2537.205811	1089.974487	6.056132
274.416565	1010.331238	2441.633789	1087.698975	5.405408
274.791962	1005.780212	2389.296875	1101.352051	6.907892
275.167389	971.647400	2316.480225	1083.147949	8.291035
275.542755	983.024963	2402.949951	1071.770264	6.249999
275.918060	989.851563	2245.938965	1108.178589	9.420286
276.293365	1005.780212	2336.959961	1094.525513	6.666666
276.668640	976.198425	2475.766602	1028.535400	3.490137
277.043854	1023.984375	2489.419678	1033.086426	0.621116
277.419037	937.514587	2514.450439	1053.566162	7.359309
277.794189	964.820801	2439.358398	1080.872437	7.870375
278.169312	971.647400	2491.695313	1080.872437	7.185631
278.544373	976.198425	2514.450439	1110.454102	8.727808
278.919464	930.687988	2509.899414	1033.086426	6.484150
279.294464	935.239075	2330.133301	1076.321289	10.114187
279.669464	985.300537	2459.837891	1078.596802	6.327155
280.044403	1012.606750	2380.194824	1126.382813	8.319468
280.419312	944.341125	2437.082764	1108.178589	10.975607
280.794189	1019.433350	2430.256104	1062.668213	3.064514
281.169037	1037.637451	2559.960938	1126.382813	5.829599
281.543854	998.953613	2553.134277	1085.423462	5.563694
281.918671	980.749451	2589.542725	1121.831787	8.769451
282.293365	987.576050	2869.431641	1105.903076	6.287785
282.668091	926.136963	2878.533936	1176.444214	12.820510
283.042786	978.473938	3003.687500	1137.760376	7.865167
283.417419	967.096313	3005.962891	1133.209351	8.147323
283.792053	980.749451	2889.911377	1071.770264	4.767580
284.166595	973.922913	2937.697266	1119.556274	7.415992
284.541138	960.269775	2785.237549	1124.107300	8.977557
284.915619	998.953613	2939.972900	1112.729614	5.861662
285.290100	1055.841675	2921.768799	1135.484863	4.268291
285.664520	996.678101	2894.462402	1219.679199	11.750603
286.038940	930.687988	2935.421875	1215.128052	14.188420
286.413300	987.576050	3140.218750	1212.852539	10.465114
286.787628	896.555176	3165.249512	1149.138062	11.133403
287.161896	955.718750	3219.861816	1256.087524	13.266334
287.536194	1001.229126	3304.056152	1206.026001	8.893280
287.910400	987.576050	3137.943115	1303.873413	14.708993
288.284607	937.514587	3074.228516	1306.148926	17.252396
288.658752	955.718750	2935.421875	1258.363037	15.287357
289.032867	971.647400	2814.819336	1242.434326	14.691355
289.406921	1005.780212	2851.227539	1165.066650	8.631319
289.781006	912.483826	2853.503174	1180.995239	13.833527
290.154999	1008.055725	2878.533936	1240.158813	12.408756
290.529022	1003.504700	3169.800537	1256.087524	11.659664
290.902954	910.208313	3112.912354	1278.842651	16.735537
291.276825	1026.259888	3253.994629	1281.118164	11.440243
291.650757	985.300537	3331.362549	1269.740601	12.124149
292.024597	960.269775	3297.229736	1363.036987	17.234665
292.398407	962.545288	3265.372314	1394.894287	18.774704
292.772156	969.371887	3119.739014	1340.281738	17.248674
293.145905	978.473938	3115.187988	1299.322388	15.015975
293.519592	989.851563	2969.554688	1333.455200	17.356321
293.893280	1037.637451	3053.749023	1331.179688	14.559821
294.266907	917.034912	3110.636963	1340.281738	19.294603
294.640533	980.749451	3294.954102	1358.485962	16.322519
295.014069	978.473938	3249.443604	1399.445313	18.537075
295.387604	1001.229126	3547.536865	1390.343262	15.281506
295.761078	1019.433350	3588.496338	1458.608887	17.094774
296.134552	967.096313	3465.618164	1367.588013	16.029144
296.507996	967.096313	3547.536865	1338.006226	14.373899
296.881378	923.861450	3549.812500	1472.261963	20.883881
297.254730	939.790100	3729.578613	1417.649414	17.128872
297.628021	1028.535400	3988.988037	1419.924927	13.220597
298.001282	953.443237	4034.498291	1579.211426	20.310190
298.374573	1019.433350	4091.386475	1499.568237	15.629629
298.747803	1001.229126	3909.344727	1561.007324	19.248829
299.121002	998.953613	3747.782715	1417.649414	15.231788
299.494141	885.177612	3602.149414	1419.924927	19.681740
299.867188	1001.229126	3565.741211	1458.608887	17.834961
300.240265	1001.229126	3388.250488	1454.057739	18.970446
300.613312	969.371887	3367.770752	1444.955688	19.829220
300.986328	1026.259888	3345.015625	1481.364014	19.627083
301.359314	987.576050	3203.933350	1413.098389	19.199175
301.732239	951.167725	3140.218750	1454.057739	22.972969
302.105103	921.585938	3265.372314	1388.067749	19.902916
302.477997	953.443237	3188.004639	1408.547363	20.366596
302.850830	1003.504700	3367.770752	1442.680176	18.575552
303.223602	1008.055725	3135.667725	1444.955688	20.534758
303.596375	1051.290649	3208.484375	1360.761475	14.345990
303.969116	973.922913	3071.953125	1317.526489	16.377436
304.341766	987.576050	3076.504150	1326.628662	16.230936
304.714478	980.749451	3156.147461	1262.914063	12.970713
305.087067	944.341125	3162.973877	1417.649414	21.333332
305.459656	989.851563	3144.769775	1435.853638	20.696938
305.832214	1003.504700	3172.075928	1315.250977	14.375652
306.204681	971.647400	3040.095703	1399.445313	20.682070
306.577148	907.932800	3056.024414	1347.108276	20.444914
306.949646	998.953613	3140.218750	1399.445313	18.703508
307.322021	921.585938	3167.524902	1399.445313	21.276596
307.694397	935.239075	3126.565674	1385.792114	20.560743
308.066742	1019.433350	3053.749023	1372.139038	17.337805
308.439026	980.749451	3324.535889	1383.516602	17.184465
308.811279	1001.229126	3217.586426	1367.588013	16.529774
309.183502	998.953613	3417.832275	1347.108276	14.393226
309.555695	946.616638	3481.546875	1435.853638	19.299822
309.927887	951.167725	3415.556641	1335.730713	15.604801
310.299988	1023.984375	3556.638916	1419.924927	15.633421
310.672058	942.065613	3499.750977	1410.822876	18.327402
311.044128	946.616638	3558.914551	1444.955688	19.076654
311.416168	914.759338	3654.486328	1388.067749	17.275751
311.788147	942.065613	3636.282227	1394.894287	16.807434
312.160065	967.096313	3615.802490	1422.200562	17.182135
312.531982	944.341125	3549.812500	1349.383789	15.545850
312.903870	992.127075	3433.760986	1415.373901	17.334574
313.275696	948.892151	3417.832275	1367.588013	16.958527
313.647491	1014.882263	3319.984863	1353.934937	14.708789
314.019318	1001.229126	3404.179199	1383.516602	15.909088
314.391022	1017.157776	3415.556641	1369.863525	14.705883
314.762726	1003.504700	3445.138428	1383.516602	15.563837
315.134369	989.851563	3563.465576	1410.822876	16.357204
315.505981	937.514587	3699.996826	1392.618774	16.474466
315.877594	976.198425	3759.160400	1429.027100	16.271465
316.249146	1049.015137	3593.047363	1458.608887	16.100180
316.620636	928.412476	3467.893799	1315.250977	15.232972
316.992157	973.922913	3276.750000	1301.597900	14.229248
317.363586	896.555176	3290.403076	1372.139038	19.866920
317.735016	985.300537	3256.270264	1394.894287	18.036072
318.106354	960.269775	3304.056152	1372.139038	17.572815
318.477722	1026.259888	3347.291016	1342.557251	13.627450
318.849060	919.310425	3253.994629	1333.455200	17.738792
319.220306	910.208313	3244.892578	1328.904175	17.933725
319.591522	1014.882263	3442.863037	1349.383789	13.776943
319.962738	985.300537	3454.240479	1292.495850	12.442397
320.333923	944.341125	3304.056152	1287.944824	14.561236
320.705017	1042.188477	3310.882813	1260.638550	9.628890
321.076111	998.953613	3329.086914	1381.241089	16.406250
