Jaz Data File
++++++++++++++++++++++++++++++++++++
Date: Wed Feb 07 06:51:58 2024
User: jaz
Dark Spectrum Present: Yes
Reference Spectrum Present: Yes
Processed Spectrum Present: Yes
Spectrometers: JAZA3692
Integration Time (usec): 42900 (JAZA3692)
Spectra Averaged: 1 (JAZA3692)
Boxcar Smoothing: 0 (JAZA3692)
Correct for Electrical Dark: No (JAZA3692)
Strobe/Lamp Enabled: Yes (JAZA3692)
Correct for Detector Non-linearity: No (JAZA3692)
Correct for Stray Light: No (JAZA3692)
Number of Pixels in Processed Spectrum: 2048
>>>>>Begin Processed Spectral Data<<<<<
W	D	R	S	P
190.244385	0.000000	0.000000	0.000000	0.000000
190.627136	0.000000	0.000000	0.000000	0.000000
191.009842	907.932800	948.892151	987.576050	194.444611
191.392532	985.300537	1028.535400	876.075500	-252.631851
191.775177	917.034912	967.096313	969.371887	104.545563
192.157791	989.851563	903.381775	1042.188477	-60.526245
192.540390	992.127075	917.034912	910.208313	109.090958
192.922943	905.657288	1001.229126	921.585938	16.666677
193.305481	1003.504700	1035.361938	987.576050	-50.000095
193.687958	1010.331238	1023.984375	1003.504700	-49.999775
194.070419	948.892151	1019.433350	983.024963	48.387062
194.452866	1064.943726	928.412476	930.687988	98.333336
194.835251	1030.810913	1012.606750	953.443237	424.999908
195.217621	1008.055725	976.198425	960.269775	150.000000
195.599960	1039.912964	1003.504700	937.514587	281.250366
195.982254	1080.872437	976.198425	932.963501	141.304352
196.364517	1033.086426	971.647400	976.198425	92.592613
196.746750	962.545288	1003.504700	973.922913	27.777803
197.128952	1014.882263	994.402588	996.678101	88.888924
197.511139	1067.219238	1001.229126	926.136963	213.793045
197.893280	992.127075	1010.331238	996.678101	24.999916
198.275391	998.953613	935.239075	953.443237	71.428558
198.657471	1001.229126	1003.504700	1019.433350	799.983887
199.039520	1049.015137	967.096313	992.127075	69.444435
199.421539	948.892151	1037.637451	944.341125	-5.128188
199.803513	967.096313	973.922913	953.443237	-199.998215
200.185471	1001.229126	948.892151	969.371887	60.869469
200.567383	1010.331238	1010.331238	978.473938	0.000000
200.949265	989.851563	989.851563	994.402588	0.000000
201.331131	930.687988	1044.463989	989.851563	52.000046
201.712967	946.616638	1037.637451	914.759338	-35.000015
202.094742	976.198425	1030.810913	964.820801	-20.833376
202.476517	980.749451	1026.259888	1071.770264	199.999863
202.858231	957.994263	1055.841675	960.269775	2.325573
203.239944	969.371887	994.402588	957.994263	-45.454678
203.621582	955.718750	935.239075	983.024963	-133.333237
204.003235	937.514587	969.371887	923.861450	-42.857170
204.384827	935.239075	1019.433350	971.647400	43.243233
204.766388	937.514587	1017.157776	917.034912	-25.714283
205.147934	985.300537	1039.912964	1008.055725	41.666687
205.529449	1021.708862	953.443237	939.790100	120.000015
205.910904	976.198425	1044.463989	937.514587	-56.666695
206.292343	948.892151	1019.433350	985.300537	51.612938
206.673767	930.687988	992.127075	921.585938	-14.814756
207.055115	998.953613	980.749451	973.922913	137.499878
207.436462	1010.331238	1012.606750	996.678101	-600.002686
207.817780	1014.882263	1069.494751	935.239075	-145.833298
208.199051	967.096313	976.198425	973.922913	75.000168
208.580307	994.402588	983.024963	1021.708862	-239.999786
208.961517	928.412476	971.647400	937.514587	21.052683
209.342712	983.024963	987.576050	960.269775	-499.994629
209.723846	976.198425	989.851563	948.892151	-200.000000
210.104965	1096.801025	1069.494751	942.065613	566.666138
210.486069	955.718750	1074.045776	910.208313	-38.461575
210.867111	985.300537	1044.463989	921.585938	-107.692497
211.248123	962.545288	1046.739624	939.790100	-27.026981
211.629120	962.545288	998.953613	882.902100	-218.749939
212.010071	994.402588	1044.463989	962.545288	-63.636452
212.390991	951.167725	1026.259888	898.830688	-69.697067
212.771881	983.024963	923.861450	978.473938	7.692284
213.152756	962.545288	992.127075	937.514587	-84.615242
213.533569	962.545288	944.341125	887.453125	412.499969
213.914368	930.687988	960.269775	971.647400	138.461594
214.295135	989.851563	985.300537	907.932800	1800.006714
214.675858	989.851563	928.412476	985.300537	7.407378
215.056549	978.473938	992.127075	903.381775	-549.999329
215.437225	1019.433350	978.473938	951.167725	166.666519
215.817841	978.473938	1071.770264	937.514587	-43.902428
216.198441	1010.331238	985.300537	987.576050	90.909111
216.579025	928.412476	1028.535400	1026.259888	97.727280
216.959549	1053.566162	1017.157776	1019.433350	93.749863
217.340057	973.922913	1012.606750	1030.810913	147.058838
217.720535	1003.504700	1008.055725	957.994263	-1000.004028
218.100967	1003.504700	1001.229126	946.616638	2499.943604
218.481369	994.402588	987.576050	978.473938	233.334229
218.861740	1003.504700	1067.219238	937.514587	-103.571510
219.242065	955.718750	978.473938	1033.086426	340.000153
219.622391	969.371887	1019.433350	1003.504700	68.181816
220.002670	994.402588	1012.606750	980.749451	-75.000084
220.382919	976.198425	962.545288	971.647400	33.333183
220.763123	932.963501	996.678101	978.473938	71.428589
221.143295	937.514587	1014.882263	983.024963	58.823502
221.523453	992.127075	1005.780212	978.473938	-100.000000
221.903549	957.994263	1003.504700	980.749451	49.999931
222.283630	1046.739624	1023.984375	944.341125	449.999451
222.663696	976.198425	1035.361938	964.820801	-19.230812
223.043701	923.861450	978.473938	926.136963	4.166653
223.423676	978.473938	1033.086426	1030.810913	95.833344
223.803635	967.096313	1012.606750	907.932800	-129.999878
224.183548	928.412476	996.678101	998.953613	103.333321
224.563431	962.545288	1014.882263	971.647400	17.391359
224.943283	946.616638	1008.055725	948.892151	3.703689
225.323105	937.514587	1058.117188	960.269775	18.867908
225.702881	1008.055725	1033.086426	962.545288	-181.818466
226.082642	919.310425	1026.259888	892.004150	-25.531942
226.462357	1017.157776	1035.361938	932.963501	-462.500122
226.842041	998.953613	967.096313	980.749451	57.142830
227.221695	926.136963	1019.433350	951.167725	26.829294
227.601318	937.514587	1021.708862	971.647400	40.540539
227.980911	989.851563	996.678101	921.585938	-1000.003601
228.360474	976.198425	1021.708862	932.963501	-95.000023
228.739990	1028.535400	1135.484863	989.851563	-36.170204
229.119476	971.647400	1124.107300	928.412476	-28.358227
229.498932	1005.780212	1130.933838	937.514587	-54.545464
229.878372	996.678101	1187.821899	992.127075	-2.380943
230.257736	1008.055725	1212.852539	848.769287	-77.777794
230.637115	980.749451	1203.750488	967.096313	-6.122455
231.016449	992.127075	1128.658325	1003.504700	8.333348
231.395737	903.381775	1121.831787	901.106262	-1.041663
231.774994	937.514587	1014.882263	1055.841675	152.941254
232.154221	964.820801	1146.862427	998.953613	18.750004
232.533417	937.514587	1146.862427	976.198425	18.478260
232.912582	917.034912	1167.342163	932.963501	6.363615
233.291702	928.412476	1115.005249	953.443237	13.414647
233.670792	996.678101	1119.556274	903.381775	-75.925873
234.049866	907.932800	1133.209351	921.585938	6.060612
234.428894	957.994263	1176.444214	980.749451	10.416659
234.807892	973.922913	1183.270874	948.892151	-11.956534
235.186874	985.300537	1133.209351	917.034912	-46.153858
235.565781	967.096313	1212.852539	930.687988	-14.814813
235.944687	1028.535400	1185.546387	901.106262	-81.159378
236.323547	948.892151	1256.087524	992.127075	14.074080
236.702377	926.136963	1201.474976	998.953613	26.446276
237.081177	980.749451	1174.168701	1046.739624	34.117687
237.459946	980.749451	1190.097412	983.024963	1.086952
237.838669	942.065613	1165.066650	964.820801	10.204073
238.217361	928.412476	1256.087524	1019.433350	27.777786
238.596039	994.402588	1208.301514	928.412476	-30.851072
238.974670	942.065613	1208.301514	953.443237	4.273512
239.353271	957.994263	1224.230225	983.024963	9.401698
239.731842	980.749451	1240.158813	969.371887	-4.385950
240.110367	919.310425	1158.240112	930.687988	4.761888
240.488876	928.412476	1237.883301	962.545288	11.029412
240.867340	964.820801	1253.812012	942.065613	-7.874007
241.245789	1019.433350	1258.363037	912.483826	-44.761925
241.624176	969.371887	1228.781250	923.861450	-17.543869
242.002548	957.994263	1467.710938	1005.780212	9.375002
242.380890	1023.984375	1495.017212	951.167725	-15.458933
242.759186	1019.433350	1533.701050	987.576050	-6.194692
243.137451	932.963501	1592.864502	967.096313	5.172414
243.515686	971.647400	1658.854614	1012.606750	5.960262
243.893890	964.820801	1658.854614	969.371887	0.655744
244.272049	967.096313	1517.772339	1035.361938	12.396694
244.650192	889.728638	1606.517700	1035.361938	20.317455
245.028290	905.657288	1506.394775	1008.055725	17.045454
245.406357	960.269775	1492.741699	985.300537	4.700861
245.784393	955.718750	1447.231201	1026.259888	14.351851
246.162384	907.932800	1501.843750	987.576050	13.409965
246.540359	948.892151	1592.864502	1030.810913	12.720851
246.918289	955.718750	1615.619751	1080.872437	18.965525
247.296204	989.851563	1756.702026	1051.290649	8.011873
247.674057	973.922913	2066.172852	1096.801025	11.249999
248.051895	976.198425	2243.663574	1096.801025	9.515260
248.429703	948.892151	2352.888428	1115.005249	11.831449
248.807465	1010.331238	2336.959961	1108.178589	7.375640
249.185196	1019.433350	2095.754639	1103.627563	7.822405
249.562897	964.820801	1893.233276	1094.525513	13.970592
249.940567	1001.229126	1840.896362	1044.463989	5.149047
250.318192	1021.708862	1779.457275	1010.331238	-1.501504
250.695801	994.402588	1649.752563	1053.566162	9.027783
251.073349	980.749451	1579.211426	1074.045776	15.589349
251.450882	955.718750	1501.843750	1051.290649	17.500004
251.828400	1053.566162	1524.598877	955.718750	-20.772955
252.205872	987.576050	1565.558350	1012.606750	4.330704
252.583313	926.136963	1636.099487	1124.107300	27.884619
252.960693	980.749451	1722.569214	1042.188477	8.282204
253.338074	955.718750	1913.713013	1037.637451	8.551064
253.715408	1019.433350	1845.447388	1094.525513	9.090906
254.092682	923.861450	1665.681274	1062.668213	18.711655
254.469955	989.851563	1654.303589	1042.188477	7.876703
254.847198	937.514587	1574.660400	1023.984375	13.571428
255.224365	1017.157776	1508.670288	1033.086426	3.240741
255.601563	910.208313	1506.394775	978.473938	11.450381
255.978683	973.922913	1547.354126	1028.535400	9.523808
256.355743	976.198425	1499.568237	1019.433350	8.260875
256.732819	930.687988	1570.109375	1012.606750	12.811389
257.109894	944.341125	1549.629639	1055.841675	18.421059
257.486877	1005.780212	1576.935913	1026.259888	3.585655
257.863831	1028.535400	1683.885376	1060.392700	4.861113
258.240753	1008.055725	1672.507813	1099.076538	13.698627
258.617645	1017.157776	1692.987427	1012.606750	-0.673398
258.994507	1003.504700	1799.937012	1074.045776	8.857134
259.371307	980.749451	1836.345337	1105.903076	14.627656
259.748108	985.300537	2125.336426	1074.045776	7.784425
260.124878	998.953613	2314.204590	1089.974487	6.920419
260.501617	898.830688	2500.797363	1228.781250	20.596594
260.878296	919.310425	2803.441650	1199.199463	14.855071
261.254944	951.167725	2889.911377	1135.484863	9.507040
261.631561	989.851563	2864.880615	1144.586914	8.252424
262.008179	946.616638	2521.277100	1176.444214	14.595374
262.384735	960.269775	2168.571289	1085.423462	10.357820
262.761261	973.922913	2018.386963	1076.321289	9.803915
263.137695	926.136963	2027.489014	1005.780212	7.231407
263.514191	928.412476	1934.192627	1046.739624	11.764713
263.890594	996.678101	1970.601074	1058.117188	6.308414
264.267029	944.341125	1909.161987	1053.566162	11.320758
264.643341	978.473938	1875.029175	1096.801025	13.197969
265.019653	942.065613	1845.447388	1023.984375	9.068011
265.395935	992.127075	1831.794189	1071.770264	9.485091
265.772217	1017.157776	1863.651489	1033.086426	1.881721
266.148407	953.443237	1829.518677	1083.147949	14.805199
266.524597	992.127075	1970.601074	1023.984375	3.255815
266.900726	926.136963	2029.764526	1051.290649	11.340210
267.276855	967.096313	2004.733887	1105.903076	13.377192
267.652924	967.096313	2241.387939	1069.494751	8.035714
268.028992	953.443237	2168.571289	1094.525513	11.610486
268.404999	955.718750	2118.509766	1099.076538	12.328767
268.781006	894.279663	2111.683350	1049.015137	12.710284
269.156921	980.749451	2125.336426	1085.423462	9.145134
269.532837	973.922913	2170.846924	1044.463989	5.893530
269.908661	953.443237	2086.652588	1058.117188	9.236947
270.284546	892.004150	2143.540527	1096.801025	16.363638
270.660339	1023.984375	2148.091553	1017.157776	-0.607291
271.036133	937.514587	2141.265137	1117.280762	14.933840
271.411835	944.341125	2364.266113	1126.382813	12.820514
271.787537	969.371887	2448.460449	1110.454102	9.538456
272.163239	967.096313	2616.848877	1117.280762	9.103453
272.538849	1035.361938	2780.686523	1126.382813	5.215126
272.914459	987.576050	2812.543701	1135.484863	8.104736
273.290070	980.749451	2632.777588	1155.964600	10.606064
273.665588	944.341125	2491.695313	1058.117188	7.352942
274.041046	996.678101	2537.205811	1044.463989	3.101917
274.416565	1010.331238	2441.633789	1119.556274	7.631164
274.791962	1005.780212	2389.296875	1124.107300	8.552632
275.167389	971.647400	2316.480225	1039.912964	5.076138
275.542755	983.024963	2402.949951	1133.209351	10.576923
275.918060	989.851563	2245.938965	1101.352051	8.876810
276.293365	1005.780212	2336.959961	1060.392700	4.102563
276.668640	976.198425	2475.766602	1089.974487	7.587255
277.043854	1023.984375	2489.419678	1094.525513	4.813664
277.419037	937.514587	2514.450439	1165.066650	14.430015
277.794189	964.820801	2439.358398	1035.361938	4.783950
278.169312	971.647400	2491.695313	1124.107300	10.029941
278.544373	976.198425	2514.450439	1078.596802	6.656801
278.919464	930.687988	2509.899414	1128.658325	12.536025
279.294464	935.239075	2330.133301	1101.352051	11.908643
279.669464	985.300537	2459.837891	1060.392700	5.092591
280.044403	1012.606750	2380.194824	1119.556274	7.820302
280.419312	944.341125	2437.082764	1099.076538	10.365853
280.794189	1019.433350	2430.256104	1151.413574	9.354841
281.169037	1037.637451	2559.960938	1096.801025	3.886400
281.543854	998.953613	2553.134277	1160.515625	10.395317
281.918671	980.749451	2589.542725	1153.689087	10.749650
282.293365	987.576050	2869.431641	1221.954712	12.454658
282.668091	926.136963	2878.533936	1133.209351	10.606060
283.042786	978.473938	3003.687500	1094.525513	5.730338
283.417419	967.096313	3005.962891	1146.862427	8.816963
283.792053	980.749451	2889.911377	1067.219238	4.529202
284.166595	973.922913	2937.697266	1190.097412	11.008113
284.541138	960.269775	2785.237549	1121.831787	8.852869
284.915619	998.953613	2939.972900	1192.372925	9.964832
285.290100	1055.841675	2921.768799	1137.760376	4.390241
285.664520	996.678101	2894.462402	1144.586914	7.793763
286.038940	930.687988	2935.421875	1201.474976	13.507379
286.413300	987.576050	3140.218750	1262.914063	12.790698
286.787628	896.555176	3165.249512	1185.546387	12.738217
287.161896	955.718750	3219.861816	1210.577026	11.256280
287.536194	1001.229126	3304.056152	1231.056763	9.980238
287.910400	987.576050	3137.943115	1231.056763	11.322750
288.284607	937.514587	3074.228516	1199.199463	12.247071
288.658752	955.718750	2935.421875	1233.332275	14.022987
289.032867	971.647400	2814.819336	1165.066650	10.493826
289.406921	1005.780212	2851.227539	1301.597900	16.029593
289.781006	912.483826	2853.503174	1235.607788	16.647127
290.154999	1008.055725	2878.533936	1246.985352	12.773719
290.529022	1003.504700	3169.800537	1374.414551	17.121845
290.902954	910.208313	3112.912354	1328.904175	19.008266
291.276825	1026.259888	3253.994629	1365.312500	15.219612
291.650757	985.300537	3331.362549	1365.312500	16.197865
292.024597	960.269775	3297.229736	1403.996338	18.987341
292.398407	962.545288	3265.372314	1301.597900	14.723320
292.772156	969.371887	3119.739014	1338.006226	17.142855
293.145905	978.473938	3115.187988	1413.098389	20.340786
293.519592	989.851563	2969.554688	1360.761475	18.735634
293.893280	1037.637451	3053.749023	1287.944824	12.415353
294.266907	917.034912	3110.636963	1338.006226	19.190870
294.640533	980.749451	3294.954102	1358.485962	16.322519
295.014069	978.473938	3249.443604	1465.435425	21.442888
295.387604	1001.229126	3547.536865	1390.343262	15.281506
295.761078	1019.433350	3588.496338	1472.261963	17.626217
296.134552	967.096313	3465.618164	1399.445313	17.304190
296.507996	967.096313	3547.536865	1374.414551	15.784834
296.881378	923.861450	3549.812500	1485.915039	21.403811
297.254730	939.790100	3729.578613	1497.292725	19.983686
297.628021	1028.535400	3988.988037	1604.242188	19.446579
298.001282	953.443237	4034.498291	1574.660400	20.162481
298.374573	1019.433350	4091.386475	1506.394775	15.851851
298.747803	1001.229126	3909.344727	1574.660400	19.718309
299.121002	998.953613	3747.782715	1438.129150	15.976822
299.494141	885.177612	3602.149414	1406.271851	19.179230
299.867188	1001.229126	3565.741211	1397.169800	15.439219
300.240265	1001.229126	3388.250488	1429.027100	17.921831
300.613312	969.371887	3367.770752	1390.343262	17.552183
300.986328	1026.259888	3345.015625	1458.608887	18.645731
301.359314	987.576050	3203.933350	1424.476074	19.712526
301.732239	951.167725	3140.218750	1435.853638	22.141371
302.105103	921.585938	3265.372314	1388.067749	19.902916
302.477997	953.443237	3188.004639	1485.915039	23.828917
302.850830	1003.504700	3367.770752	1399.445313	16.746872
303.223602	1008.055725	3135.667725	1424.476074	19.572193
303.596375	1051.290649	3208.484375	1399.445313	16.139238
303.969116	973.922913	3071.953125	1408.547363	20.715834
304.341766	987.576050	3076.504150	1403.996338	19.934639
304.714478	980.749451	3156.147461	1360.761475	17.468620
305.087067	944.341125	3162.973877	1424.476074	21.641027
305.459656	989.851563	3144.769775	1438.129150	20.802534
305.832214	1003.504700	3172.075928	1426.751587	19.517315
306.204681	971.647400	3040.095703	1479.088501	24.532454
306.577148	907.932800	3056.024414	1417.649414	23.728813
306.949646	998.953613	3140.218750	1392.618774	18.384699
307.322021	921.585938	3167.524902	1399.445313	21.276596
307.694397	935.239075	3126.565674	1360.761475	19.418484
308.066742	1019.433350	3053.749023	1338.006226	15.659953
308.439026	980.749451	3324.535889	1292.495850	13.300973
308.811279	1001.229126	3217.586426	1403.996338	18.172485
309.183502	998.953613	3417.832275	1426.751587	17.685797
309.555695	946.616638	3481.546875	1472.261963	20.736088
309.927887	951.167725	3415.556641	1469.986450	21.052631
310.299988	1023.984375	3556.638916	1497.292725	18.688232
310.672058	942.065613	3499.750977	1417.649414	18.594305
311.044128	946.616638	3558.914551	1524.598877	22.125435
311.416168	914.759338	3654.486328	1490.466064	21.013288
311.788147	942.065613	3636.282227	1460.884399	19.256760
312.160065	967.096313	3615.802490	1474.537476	19.158077
312.531982	944.341125	3549.812500	1465.435425	20.000000
312.903870	992.127075	3433.760986	1383.516602	16.029821
313.275696	948.892151	3417.832275	1424.476074	19.262674
313.647491	1014.882263	3319.984863	1403.996338	16.880554
314.019318	1001.229126	3404.179199	1374.414551	15.530302
314.391022	1017.157776	3415.556641	1378.965576	15.085389
314.762726	1003.504700	3445.138428	1394.894287	16.029823
315.134369	989.851563	3563.465576	1531.425537	21.043325
315.505981	937.514587	3699.996826	1440.404663	18.204283
315.877594	976.198425	3759.160400	1429.027100	16.271465
316.249146	1049.015137	3593.047363	1508.670288	18.067976
316.620636	928.412476	3467.893799	1408.547363	18.906809
316.992157	973.922913	3276.750000	1401.720825	18.577074
317.363586	896.555176	3290.403076	1331.179688	18.155895
317.735016	985.300537	3256.270264	1378.965576	17.334667
318.106354	960.269775	3304.056152	1358.485962	16.990294
318.477722	1026.259888	3347.291016	1351.659302	14.019605
318.849060	919.310425	3253.994629	1403.996338	20.760235
319.220306	910.208313	3244.892578	1312.975464	17.251461
319.591522	1014.882263	3442.863037	1403.996338	16.026243
319.962738	985.300537	3454.240479	1417.649414	17.511518
320.333923	944.341125	3304.056152	1417.649414	20.057858
320.705017	1042.188477	3310.882813	1369.863525	14.443332
321.076111	998.953613	3329.086914	1363.036987	15.625002
