Jaz Data File
++++++++++++++++++++++++++++++++++++
Date: Wed Feb 07 06:52:46 2024
User: jaz
Dark Spectrum Present: Yes
Reference Spectrum Present: Yes
Processed Spectrum Present: Yes
Spectrometers: JAZA3692
Integration Time (usec): 49800 (JAZA3692)
Spectra Averaged: 1 (JAZA3692)
Boxcar Smoothing: 0 (JAZA3692)
Correct for Electrical Dark: No (JAZA3692)
Strobe/Lamp Enabled: Yes (JAZA3692)
Correct for Detector Non-linearity: No (JAZA3692)
Correct for Stray Light: No (JAZA3692)
Number of Pixels in Processed Spectrum: 2048
>>>>>Begin Processed Spectral Data<<<<<
W	D	R	S	P
190.244385	0.000000	0.000000	0.000000	0.000000
190.627136	0.000000	0.000000	0.000000	0.000000
191.009842	912.483826	932.963501	878.351013	-166.666763
191.392532	962.545288	928.412476	910.208313	153.333328
191.775177	957.994263	923.861450	853.320313	306.666656
192.157791	955.718750	953.443237	903.381775	2300.008057
192.540390	928.412476	907.932800	955.718750	-133.333527
192.922943	869.248962	1008.055725	998.953613	93.442604
193.305481	880.626526	978.473938	869.248962	-11.627864
193.687958	944.341125	946.616638	903.381775	-1800.005371
194.070419	944.341125	971.647400	942.065613	-8.333296
194.452866	955.718750	967.096313	1010.331238	480.001617
194.835251	969.371887	951.167725	910.208313	325.000244
195.217621	978.473938	953.443237	976.198425	9.090887
195.599960	948.892151	1017.157776	964.820801	23.333340
195.982254	955.718750	914.759338	955.718750	-0.000000
196.364517	905.657288	971.647400	921.585938	24.137934
196.746750	1008.055725	944.341125	969.371887	60.714245
197.128952	976.198425	948.892151	955.718750	74.999886
197.511139	953.443237	935.239075	985.300537	-175.000076
197.893280	932.963501	1033.086426	994.402588	61.363655
198.275391	939.790100	901.106262	1026.259888	-223.529495
198.657471	930.687988	980.749451	983.024963	104.545441
199.039520	964.820801	955.718750	917.034912	525.001343
199.421539	960.269775	946.616638	1001.229126	-299.999542
199.803513	914.759338	960.269775	1071.770264	344.999817
200.185471	948.892151	1053.566162	996.678101	45.652161
200.567383	962.545288	1030.810913	994.402588	46.666679
200.949265	1005.780212	935.239075	996.678101	12.903268
201.331131	964.820801	928.412476	969.371887	-12.500126
201.712967	1080.872437	944.341125	937.514587	104.999977
202.094742	873.799988	1030.810913	935.239075	39.130455
202.476517	885.177612	1001.229126	905.657288	17.647057
202.858231	928.412476	951.167725	987.576050	259.999664
203.239944	942.065613	985.300537	996.678101	126.315681
203.621582	946.616638	957.994263	953.443237	60.000214
204.003235	907.932800	923.861450	939.790100	200.000000
204.384827	903.381775	985.300537	889.728638	-16.666679
204.766388	928.412476	935.239075	976.198425	699.996399
205.147934	1003.504700	955.718750	967.096313	76.190567
205.529449	980.749451	957.994263	937.514587	190.000031
205.910904	896.555176	964.820801	971.647400	110.000053
206.292343	962.545288	985.300537	967.096313	19.999893
206.673767	964.820801	1012.606750	937.514587	-57.142765
207.055115	892.004150	1001.229126	932.963501	37.499985
207.436462	937.514587	1001.229126	946.616638	14.285673
207.817780	942.065613	944.341125	962.545288	900.002686
208.199051	930.687988	1042.188477	930.687988	0.000000
208.580307	887.453125	973.922913	948.892151	71.052589
208.961517	901.106262	1005.780212	939.790100	36.956509
209.342712	948.892151	944.341125	946.616638	50.000000
209.723846	944.341125	932.963501	953.443237	-80.000107
210.104965	914.759338	930.687988	919.310425	28.571703
210.486069	917.034912	1021.708862	921.585938	4.347811
210.867111	871.524475	942.065613	962.545288	129.032242
211.248123	973.922913	1069.494751	998.953613	26.190456
211.629120	937.514587	976.198425	935.239075	-5.882334
212.010071	946.616638	967.096313	882.902100	-311.111084
212.390991	994.402588	930.687988	946.616638	75.000000
212.771881	907.932800	980.749451	914.759338	9.374969
213.152756	989.851563	953.443237	969.371887	56.249981
213.533569	992.127075	983.024963	980.749451	124.999832
213.914368	1008.055725	992.127075	896.555176	700.000000
214.295135	962.545288	1017.157776	892.004150	-129.166687
214.675858	994.402588	1026.259888	957.994263	-114.285660
215.056549	928.412476	1033.086426	898.830688	-28.260887
215.437225	926.136963	1026.259888	957.994263	31.818188
215.817841	951.167725	976.198425	969.371887	72.727341
216.198441	873.799988	1055.841675	976.198425	56.249992
216.579025	983.024963	960.269775	971.647400	49.999866
216.959549	932.963501	973.922913	930.687988	-5.555531
217.340057	967.096313	1008.055725	926.136963	-99.999847
217.720535	953.443237	917.034912	969.371887	-43.750019
218.100967	926.136963	1010.331238	967.096313	48.648617
218.481369	951.167725	910.208313	1014.882263	-155.555313
218.861740	996.678101	910.208313	983.024963	15.789489
219.242065	994.402588	996.678101	992.127075	-100.000000
219.622391	926.136963	992.127075	1053.566162	193.103470
220.002670	946.616638	951.167725	1030.810913	1849.981934
220.382919	951.167725	992.127075	989.851563	94.444458
220.763123	983.024963	953.443237	951.167725	107.692291
221.143295	978.473938	962.545288	992.127075	-85.714340
221.523453	948.892151	957.994263	980.749451	349.998993
221.903549	955.718750	1003.504700	962.545288	14.285660
222.283630	910.208313	1055.841675	1019.433350	75.000008
222.663696	919.310425	1042.188477	942.065613	18.518513
223.043701	948.892151	1030.810913	901.106262	-58.333263
223.423676	964.820801	1058.117188	937.514587	-29.268244
223.803635	1033.086426	1042.188477	946.616638	-950.003357
224.183548	1008.055725	998.953613	905.657288	1124.996460
224.563431	951.167725	987.576050	885.177612	-181.250061
224.943283	960.269775	1026.259888	962.545288	3.448263
225.323105	873.799988	1069.494751	996.678101	62.790699
225.702881	885.177612	978.473938	892.004150	7.317049
226.082642	910.208313	1042.188477	964.820801	41.379314
226.462357	903.381775	1028.535400	976.198425	58.181816
226.842041	955.718750	1037.637451	907.932800	-58.333382
227.221695	892.004150	1019.433350	980.749451	69.642830
227.601318	987.576050	1058.117188	939.790100	-67.741959
227.980911	930.687988	1044.463989	896.555176	-30.000011
228.360474	917.034912	1012.606750	944.341125	28.571402
228.739990	962.545288	1133.209351	917.034912	-26.666643
229.119476	905.657288	1149.138062	923.861450	7.476633
229.498932	821.463013	1149.138062	983.024963	49.305538
229.878372	885.177612	1210.577026	948.892151	19.580410
230.257736	901.106262	1240.158813	894.279663	-2.013434
230.637115	944.341125	1233.332275	946.616638	0.787399
231.016449	935.239075	1142.311401	969.371887	16.483522
231.395737	871.524475	1133.209351	1001.229126	49.565208
231.774994	898.830688	1183.270874	923.861450	8.800009
232.154221	926.136963	1153.689087	930.687988	1.999992
232.533417	939.790100	1117.280762	969.371887	16.666672
232.912582	921.585938	1133.209351	973.922913	24.731184
233.291702	935.239075	1121.831787	962.545288	14.634127
233.670792	944.341125	1185.546387	928.412476	-6.603774
234.049866	942.065613	1126.382813	944.341125	1.234563
234.428894	955.718750	1149.138062	939.790100	-8.235294
234.807892	951.167725	1121.831787	971.647400	11.999992
235.186874	944.341125	1128.658325	942.065613	-1.234563
235.565781	882.902100	1151.413574	1055.841675	64.406776
235.944687	1019.433350	1149.138062	969.371887	-38.596489
236.323547	967.096313	1199.199463	907.932800	-25.490181
236.702377	955.718750	1199.199463	962.545288	2.803729
237.081177	985.300537	1169.617676	967.096313	-9.876576
237.459946	932.963501	1274.291626	983.024963	14.666668
237.838669	953.443237	1210.577026	1001.229126	18.584057
238.217361	894.279663	1151.413574	971.647400	30.088499
238.596039	948.892151	1083.147949	912.483826	-27.118624
238.974670	914.759338	1174.168701	953.443237	14.912298
239.353271	905.657288	1169.617676	1003.504700	37.068977
239.731842	957.994263	1140.035889	935.239075	-12.499991
240.110367	914.759338	1240.158813	1014.882263	30.769234
240.488876	896.555176	1192.372925	964.820801	23.076920
240.867340	971.647400	1244.709839	962.545288	-3.333344
241.245789	901.106262	1303.873413	976.198425	18.644064
241.624176	935.239075	1376.690063	962.545288	6.185559
242.002548	932.963501	1281.118164	1003.504700	20.261454
242.380890	887.453125	1401.720825	994.402588	20.796457
242.759186	957.994263	1529.150024	942.065613	-2.788845
243.137451	944.341125	1622.446289	944.341125	0.000000
243.515686	939.790100	1670.232300	905.657288	-4.672897
243.893890	928.412476	1683.885376	1049.015137	15.963863
244.272049	869.248962	1665.681274	992.127075	15.428570
244.650192	1026.259888	1590.588989	953.443237	-12.903224
245.028290	932.963501	1590.588989	996.678101	9.688584
245.406357	928.412476	1510.945801	971.647400	7.421880
245.784393	912.483826	1497.292725	994.402588	14.007783
246.162384	973.922913	1433.578125	1008.055725	7.425743
246.540359	889.728638	1549.629639	1023.984375	20.344830
246.918289	955.718750	1620.170776	1044.463989	13.356154
247.296204	964.820801	1795.385864	1035.361938	8.493150
247.674057	1005.780212	1995.631714	1074.045776	6.896546
248.051895	996.678101	2339.235352	1083.147949	6.440682
248.429703	919.310425	2359.715088	1142.311401	15.481829
248.807465	907.932800	2325.582275	1169.617676	18.459068
249.185196	1001.229126	2093.479248	1044.463989	3.958330
249.562897	946.616638	1959.223389	1094.525513	14.606744
249.940567	889.728638	1884.131226	1030.810913	14.187641
250.318192	976.198425	1642.926025	1060.392700	12.627987
250.695801	960.269775	1667.956787	1001.229126	5.787777
251.073349	1019.433350	1661.130127	1089.974487	10.992908
251.450882	992.127075	1567.833862	946.616638	-7.905142
251.828400	985.300537	1563.282837	996.678101	1.968497
252.205872	914.759338	1613.344238	996.678101	11.726386
252.583313	905.657288	1633.823975	989.851563	11.562500
252.960693	978.473938	1733.946899	1003.504700	3.313257
253.338074	983.024963	1768.079712	1010.331238	3.478264
253.715408	951.167725	1722.569214	1099.076538	19.174038
254.092682	928.412476	1720.293701	1087.698975	20.114948
254.469955	894.279663	1570.109375	1039.912964	21.548817
254.847198	930.687988	1658.854614	932.963501	0.312499
255.224365	866.973450	1565.558350	1064.943726	28.338757
255.601563	919.310425	1535.976563	976.198425	9.225089
255.978683	1005.780212	1576.935913	1014.882263	1.593620
256.355743	896.555176	1576.935913	1021.708862	18.394655
256.732819	937.514587	1526.874512	1046.739624	18.532824
257.109894	894.279663	1586.037964	969.371887	10.855269
257.486877	932.963501	1558.731689	992.127075	9.454552
257.863831	887.453125	1688.436401	1023.984375	17.045456
258.240753	1008.055725	1818.141113	967.096313	-5.056184
258.617645	914.759338	1788.559326	989.851563	8.593755
258.994507	967.096313	1797.661377	1008.055725	4.931511
259.371307	964.820801	1984.254150	1033.086426	6.696428
259.748108	971.647400	2209.530762	1069.494751	7.904408
260.124878	951.167725	2364.266113	1055.841675	7.407407
260.501617	919.310425	2555.409912	1144.586914	13.769119
260.878296	946.616638	2846.676514	1112.729614	8.742513
261.254944	960.269775	2983.207764	1167.342163	10.236220
261.631561	851.044800	2924.044189	1074.045776	10.757406
262.008179	962.545288	2555.409912	1076.321289	7.142854
262.384735	928.412476	2252.765625	1089.974487	12.199315
262.761261	905.657288	2025.213501	1003.504700	8.739840
263.137695	873.799988	1952.396851	1055.841675	16.877638
263.514191	937.514587	1986.529663	1115.005249	16.919743
263.890594	976.198425	1934.192627	992.127075	1.662708
264.267029	957.994263	1925.090576	1046.739624	9.176476
264.643341	898.830688	1868.202637	1058.117188	16.431929
265.019653	953.443237	1790.834839	1019.433350	7.880436
265.395935	926.136963	1865.927002	1028.535400	10.895885
265.772217	953.443237	1815.865601	969.371887	1.846966
266.148407	989.851563	1897.784302	1069.494751	8.771926
266.524597	976.198425	1884.131226	1017.157776	4.511276
266.900726	939.790100	2088.927979	1094.525513	13.465347
267.276855	937.514587	2136.714111	1039.912964	8.538895
267.652924	992.127075	2198.153076	1069.494751	6.415092
268.028992	1005.780212	2191.326416	998.953613	-0.575819
268.404999	996.678101	2204.979736	1126.382813	10.734465
268.781006	935.239075	2198.153076	989.851563	4.324323
269.156921	946.616638	2195.877686	1049.015137	8.196726
269.532837	967.096313	2245.938965	1051.290649	6.583635
269.908661	901.106262	2209.530762	1033.086426	10.086952
270.284546	901.106262	2093.479248	1094.525513	16.221371
270.660339	976.198425	2141.265137	1021.708862	3.906252
271.036133	976.198425	2195.877686	989.851563	1.119404
271.411835	885.177612	2195.877686	1042.188477	11.979160
271.787537	967.096313	2407.500977	1062.668213	6.635073
272.163239	978.473938	2748.829102	1005.780212	1.542418
272.538849	939.790100	2796.614990	1128.658325	10.171569
272.914459	946.616638	2848.952148	1083.147949	7.177037
273.290070	864.697876	2673.737061	1005.780212	7.798744
273.665588	960.269775	2607.746826	1115.005249	9.392269
274.041046	960.269775	2562.236328	1064.943726	6.534091
274.416565	942.065613	2466.664551	1076.321289	8.805967
274.791962	953.443237	2523.552490	1044.463989	5.797097
275.167389	905.657288	2421.154053	1026.259888	7.957958
275.542755	930.687988	2255.041016	1105.903076	13.230240
275.918060	930.687988	2302.827148	1110.454102	13.101157
276.293365	948.892151	2402.949951	1008.055725	4.068860
276.668640	976.198425	2437.082764	1074.045776	6.697817
277.043854	955.718750	2400.674561	1094.525513	9.606298
277.419037	919.310425	2523.552490	1033.086426	7.092196
277.794189	928.412476	2544.032227	1042.188477	7.042251
278.169312	983.024963	2466.664551	1039.912964	3.834354
278.544373	987.576050	2532.654541	1080.872437	6.038294
278.919464	1028.535400	2437.082764	1121.831787	6.623589
279.294464	976.198425	2437.082764	976.198425	0.000000
279.669464	928.412476	2450.735840	1074.045776	9.566516
280.044403	969.371887	2311.929199	1074.045776	7.796605
280.419312	985.300537	2439.358398	1001.229126	1.095458
280.794189	998.953613	2521.277100	1044.463989	2.989534
281.169037	1030.810913	2603.195801	1062.668213	2.026050
281.543854	935.239075	2644.155273	1044.463989	6.391473
281.918671	960.269775	2701.043213	1101.352051	8.104574
282.293365	955.718750	2853.503174	1099.076538	7.553956
282.668091	980.749451	3012.789551	1142.311401	7.950727
283.042786	957.994263	2980.932129	1237.883301	13.835771
283.417419	973.922913	3112.912354	1042.188477	3.191487
283.792053	923.861450	3008.238525	1124.107300	9.606988
284.166595	989.851563	2974.105713	1099.076538	5.504586
284.541138	921.585938	2782.961914	1074.045776	8.190706
284.915619	937.514587	2835.298828	1146.862427	11.031172
285.290100	898.830688	2935.421875	1078.596802	8.826814
285.664520	983.024963	3015.064941	1108.178589	6.159014
286.038940	935.239075	3035.544678	1155.964600	10.509210
286.413300	932.963501	3231.239502	1167.342163	10.198021
286.787628	944.341125	3231.239502	1144.586914	8.756217
287.161896	964.820801	3345.015625	1183.270874	9.177823
287.536194	930.687988	3317.709229	1149.138062	9.151576
287.910400	937.514587	3231.239502	1108.178589	7.440474
288.284607	939.790100	3060.575439	1219.679199	13.197427
288.658752	878.351013	2978.656738	1246.985352	17.551462
289.032867	926.136963	2869.431641	1233.332275	15.807963
289.406921	960.269775	3005.962891	1149.138062	9.232484
289.781006	960.269775	3010.513916	1203.750488	11.875693
290.154999	964.820801	2921.768799	1242.434326	14.186045
290.529022	953.443237	3110.636963	1258.363037	14.135021
290.902954	928.412476	3438.312012	1297.046875	14.687218
291.276825	971.647400	3392.801514	1301.597900	13.627819
291.650757	930.687988	3370.046387	1342.557251	16.884327
292.024597	948.892151	3253.994629	1338.006226	16.880554
292.398407	971.647400	3217.586426	1358.485962	17.223913
292.772156	914.759338	3267.647949	1294.771362	16.150871
293.145905	946.616638	3056.024414	1390.343262	21.035603
293.519592	962.545288	2983.207764	1394.894287	21.396399
293.893280	942.065613	2971.830078	1265.189575	15.919284
294.266907	976.198425	3108.361328	1278.842651	14.194236
294.640533	937.514587	3372.321777	1390.343262	18.598133
295.014069	912.483826	3445.138428	1340.281738	16.891285
295.387604	910.208313	3495.199951	1413.098389	19.454224
295.761078	898.830688	3586.220703	1406.271851	18.882303
296.134552	917.034912	3620.353516	1506.394775	21.801346
296.507996	882.902100	3704.547852	1340.281738	16.209677
296.881378	921.585938	3743.231689	1499.568237	20.483871
297.254730	921.585938	3736.405273	1522.323364	21.341953
297.628021	964.820801	3982.161377	1517.772339	18.325790
298.001282	953.443237	4161.927734	1563.282837	19.007093
298.374573	910.208313	4032.222900	1533.701050	19.970846
298.747803	953.443237	4171.029785	1467.710938	15.983027
299.121002	885.177612	3811.497314	1444.955688	19.129080
299.494141	1014.882263	3652.210938	1429.027100	15.703195
299.867188	944.341125	3463.342773	1340.281738	15.718156
300.240265	935.239075	3483.822266	1465.435425	20.803572
300.613312	914.759338	3351.842041	1454.057739	22.128851
300.986328	919.310425	3288.127441	1392.618774	19.980791
301.359314	976.198425	3340.464600	1410.822876	18.383060
301.732239	898.830688	3326.811523	1454.057739	22.867851
302.105103	1053.566162	3499.750977	1319.802124	10.883722
302.477997	976.198425	3440.587402	1399.445313	17.174517
302.850830	944.341125	3381.423828	1401.720825	18.767508
303.223602	946.616638	3228.964111	1388.067749	19.341976
303.596375	923.861450	3144.769775	1435.853638	23.053280
303.969116	894.279663	3160.698486	1278.842651	16.967869
304.341766	957.994263	3112.912354	1338.006226	17.634638
304.714478	923.861450	3108.361328	1331.179688	18.645834
305.087067	910.208313	3119.739014	1306.148926	17.919670
305.459656	898.830688	3208.484375	1294.771362	17.142859
305.832214	841.942688	3074.228516	1290.220337	20.081553
306.204681	964.820801	3017.340576	1340.281738	18.292683
306.577148	935.239075	3056.024414	1340.281738	19.098711
306.949646	930.687988	3242.617188	1353.934937	18.307089
307.322021	912.483826	3110.636963	1367.588013	20.703936
307.694397	994.402588	3128.841064	1378.965576	18.017057
308.066742	923.861450	3158.422852	1388.067749	20.773932
308.439026	928.412476	3288.127441	1342.557251	17.550629
308.811279	926.136963	3315.433838	1342.557251	17.428570
309.183502	964.820801	3397.352539	1429.027100	19.083258
309.555695	917.034912	3634.006836	1347.108276	15.829143
309.927887	980.749451	3606.700439	1429.027100	17.071060
310.299988	983.024963	3513.404053	1451.782227	18.525179
310.672058	892.004150	3670.415039	1438.129150	19.656019
311.044128	894.279663	3677.241699	1419.924927	18.887980
311.416168	969.371887	3611.251465	1403.996338	16.451334
311.788147	917.034912	3586.220703	1390.343262	17.732311
312.160065	1014.882263	3775.089111	1403.996338	14.097280
312.531982	983.024963	3531.608398	1467.710938	19.017857
312.903870	926.136963	3542.985840	1431.302612	19.304350
313.275696	907.932800	3429.209961	1390.343262	19.133575
313.647491	992.127075	3381.423828	1333.455200	14.285714
314.019318	964.820801	3360.944336	1372.139038	16.999050
314.391022	1012.606750	3340.464600	1363.036987	15.053764
314.762726	939.790100	3451.965088	1351.659302	16.394924
315.134369	946.616638	3533.883789	1369.863525	16.358841
315.505981	926.136963	3738.680664	1406.271851	17.071198
315.877594	948.892151	3779.640137	1303.873413	12.540193
316.249146	992.127075	3611.251465	1397.169800	15.464813
316.620636	978.473938	3426.934326	1338.006226	14.684014
316.992157	1008.055725	3381.423828	1340.281738	13.998081
317.363586	983.024963	3370.046387	1356.210449	15.633939
317.735016	937.514587	3306.331787	1287.944824	14.793469
318.106354	992.127075	3363.219727	1365.312500	15.738963
318.477722	912.483826	3356.393066	1349.383789	17.877094
318.849060	912.483826	3347.291016	1285.669312	15.327106
319.220306	969.371887	3374.597412	1378.965576	17.029325
319.591522	921.585938	3456.516113	1319.802124	15.709158
319.962738	942.065613	3495.199951	1408.547363	18.270945
320.333923	932.963501	3529.332764	1260.638550	12.620511
320.705017	948.892151	3556.638916	1363.036987	15.881329
321.076111	903.381775	3476.995850	1301.597900	15.473032
321.447144	942.065613	3340.464600	1344.832764	16.793167
321.818176	892.004150	3203.933350	1303.873413	17.814960
