Jaz Data File
++++++++++++++++++++++++++++++++++++
Date: Wed Feb 07 06:53:59 2024
User: jaz
Dark Spectrum Present: Yes
Reference Spectrum Present: Yes
Processed Spectrum Present: Yes
Spectrometers: JAZA3692
Integration Time (usec): 49800 (JAZA3692)
Spectra Averaged: 1 (JAZA3692)
Boxcar Smoothing: 0 (JAZA3692)
Correct for Electrical Dark: No (JAZA3692)
Strobe/Lamp Enabled: Yes (JAZA3692)
Correct for Detector Non-linearity: No (JAZA3692)
Correct for Stray Light: No (JAZA3692)
Number of Pixels in Processed Spectrum: 2048
>>>>>Begin Processed Spectral Data<<<<<
W	D	R	S	P
190.244385	0.000000	0.000000	0.000000	0.000000
190.627136	0.000000	0.000000	0.000000	0.000000
191.009842	912.483826	932.963501	894.279663	-88.888924
191.392532	962.545288	928.412476	901.106262	179.999893
191.775177	957.994263	923.861450	885.177612	213.333282
192.157791	955.718750	953.443237	926.136963	1300.005371
192.540390	928.412476	907.932800	967.096313	-188.888916
192.922943	869.248962	1008.055725	910.208313	29.508181
193.305481	880.626526	978.473938	866.973450	-13.953436
193.687958	944.341125	946.616638	967.096313	1000.002686
194.070419	944.341125	971.647400	894.279663	-183.333191
194.452866	955.718750	967.096313	944.341125	-100.000534
194.835251	969.371887	951.167725	862.422363	587.500366
195.217621	978.473938	953.443237	901.106262	309.091125
195.599960	948.892151	1017.157776	910.208313	-56.666641
195.982254	955.718750	914.759338	919.310425	88.888786
196.364517	905.657288	971.647400	978.473938	110.344788
196.746750	1008.055725	944.341125	951.167725	89.285660
197.128952	976.198425	948.892151	967.096313	33.333408
197.511139	953.443237	935.239075	973.922913	-112.499962
197.893280	932.963501	1033.086426	957.994263	25.000031
198.275391	939.790100	901.106262	935.239075	11.764668
198.657471	930.687988	980.749451	978.473938	95.454559
199.039520	964.820801	955.718750	932.963501	350.001343
199.421539	960.269775	946.616638	889.728638	516.666138
199.803513	914.759338	960.269775	953.443237	85.000061
200.185471	948.892151	1053.566162	855.595825	-89.130363
200.567383	962.545288	1030.810913	903.381775	-86.666626
200.949265	1005.780212	935.239075	907.932800	138.709717
201.331131	964.820801	928.412476	896.555176	187.500046
201.712967	1080.872437	944.341125	864.697876	158.333328
202.094742	873.799988	1030.810913	855.595825	-11.594201
202.476517	885.177612	1001.229126	953.443237	58.823555
202.858231	928.412476	951.167725	869.248962	-259.999420
203.239944	942.065613	985.300537	1005.780212	147.368362
203.621582	946.616638	957.994263	967.096313	179.999573
204.003235	907.932800	923.861450	937.514587	185.714340
204.384827	903.381775	985.300537	901.106262	-2.777767
204.766388	928.412476	935.239075	894.279663	-499.997314
205.147934	1003.504700	955.718750	953.443237	104.761887
205.529449	980.749451	957.994263	976.198425	19.999947
205.910904	896.555176	964.820801	857.871338	-56.666641
206.292343	962.545288	985.300537	948.892151	-59.999947
206.673767	964.820801	1012.606750	862.422363	-214.285660
207.055115	892.004150	1001.229126	912.483826	18.749992
207.436462	937.514587	1001.229126	948.892151	17.857092
207.817780	942.065613	944.341125	878.351013	-2800.010742
208.199051	930.687988	1042.188477	955.718750	22.449015
208.580307	887.453125	973.922913	907.932800	23.684198
208.961517	901.106262	1005.780212	960.269775	56.521717
209.342712	948.892151	944.341125	898.830688	1100.004028
209.723846	944.341125	932.963501	967.096313	-199.999466
210.104965	914.759338	930.687988	921.585938	42.857361
210.486069	917.034912	1021.708862	876.075500	-39.130474
210.867111	871.524475	942.065613	994.402588	174.193558
211.248123	973.922913	1069.494751	948.892151	-26.190519
211.629120	937.514587	976.198425	921.585938	-41.176498
212.010071	946.616638	967.096313	853.320313	-455.555695
212.390991	994.402588	930.687988	994.402588	-0.000000
212.771881	907.932800	980.749451	930.687988	31.249979
213.152756	989.851563	953.443237	937.514587	143.750015
213.533569	992.127075	983.024963	955.718750	399.998657
213.914368	1008.055725	992.127075	985.300537	142.856979
214.295135	962.545288	1017.157776	910.208313	-95.833344
214.675858	994.402588	1026.259888	898.830688	-300.000000
215.056549	928.412476	1033.086426	889.728638	-36.956509
215.437225	926.136963	1026.259888	946.616638	20.454531
215.817841	951.167725	976.198425	914.759338	-145.454926
216.198441	873.799988	1055.841675	921.585938	26.250004
216.579025	983.024963	960.269775	866.973450	510.000244
216.959549	932.963501	973.922913	853.320313	-194.444168
217.340057	967.096313	1008.055725	923.861450	-105.555382
217.720535	953.443237	917.034912	896.555176	156.250153
218.100967	926.136963	1010.331238	953.443237	32.432461
218.481369	951.167725	910.208313	905.657288	111.111061
218.861740	996.678101	910.208313	910.208313	100.000000
219.242065	994.402588	996.678101	839.667175	-6800.023926
219.622391	926.136963	992.127075	953.443237	41.379341
220.002670	946.616638	951.167725	942.065613	-99.998657
220.382919	951.167725	992.127075	946.616638	-11.111227
220.763123	983.024963	953.443237	853.320313	438.462067
221.143295	978.473938	962.545288	919.310425	371.428284
221.523453	948.892151	957.994263	930.687988	-199.999329
221.903549	955.718750	1003.504700	885.177612	-147.618988
222.283630	910.208313	1055.841675	851.044800	-40.624973
222.663696	919.310425	1042.188477	882.902100	-29.629641
223.043701	948.892151	1030.810913	857.871338	-111.111069
223.423676	964.820801	1058.117188	928.412476	-39.024368
223.803635	1033.086426	1042.188477	942.065613	-1000.003357
224.183548	1008.055725	998.953613	873.799988	1474.995483
224.563431	951.167725	987.576050	855.595825	-262.500122
224.943283	960.269775	1026.259888	951.167725	-13.793053
225.323105	873.799988	1069.494751	898.830688	12.790685
225.702881	885.177612	978.473938	953.443237	73.170753
226.082642	910.208313	1042.188477	1014.882263	79.310364
226.462357	903.381775	1028.535400	917.034912	10.909102
226.842041	955.718750	1037.637451	946.616638	-11.111153
227.221695	892.004150	1019.433350	907.932800	12.500000
227.601318	987.576050	1058.117188	921.585938	-93.548409
227.980911	930.687988	1044.463989	869.248962	-53.999989
228.360474	917.034912	1012.606750	926.136963	9.523779
228.739990	962.545288	1133.209351	960.269775	-1.333329
229.119476	905.657288	1149.138062	869.248962	-14.953265
229.498932	821.463013	1149.138062	932.963501	34.027763
229.878372	885.177612	1210.577026	878.351013	-2.097914
230.257736	901.106262	1240.158813	873.799988	-8.053699
230.637115	944.341125	1233.332275	942.065613	-0.787399
231.016449	935.239075	1142.311401	926.136963	-4.395619
231.395737	871.524475	1133.209351	917.034912	17.391314
231.774994	898.830688	1183.270874	896.555176	-0.799997
232.154221	926.136963	1153.689087	926.136963	0.000000
232.533417	939.790100	1117.280762	930.687988	-5.128220
232.912582	921.585938	1133.209351	944.341125	10.752680
233.291702	935.239075	1121.831787	896.555176	-20.731731
233.670792	944.341125	1185.546387	937.514587	-2.830178
234.049866	942.065613	1126.382813	894.279663	-25.925930
234.428894	955.718750	1149.138062	917.034912	-19.999987
234.807892	951.167725	1121.831787	869.248962	-48.000008
235.186874	944.341125	1128.658325	903.381775	-22.222208
235.565781	882.902100	1151.413574	907.932800	9.322022
235.944687	1019.433350	1149.138062	960.269775	-45.614052
236.323547	967.096313	1199.199463	930.687988	-15.686270
236.702377	955.718750	1199.199463	996.678101	16.822420
237.081177	985.300537	1169.617676	896.555176	-48.148186
237.459946	932.963501	1274.291626	894.279663	-11.333328
237.838669	953.443237	1210.577026	907.932800	-17.699127
238.217361	894.279663	1151.413574	983.024963	34.513264
238.596039	948.892151	1083.147949	942.065613	-5.084725
238.974670	914.759338	1174.168701	862.422363	-20.175438
239.353271	905.657288	1169.617676	907.932800	0.862066
239.731842	957.994263	1140.035889	921.585938	-20.000000
240.110367	914.759338	1240.158813	914.759338	0.000000
240.488876	896.555176	1192.372925	880.626526	-5.384616
240.867340	971.647400	1244.709839	994.402588	8.333327
241.245789	901.106262	1303.873413	917.034912	3.954804
241.624176	935.239075	1376.690063	967.096313	7.216484
242.002548	932.963501	1281.118164	960.269775	7.843145
242.380890	887.453125	1401.720825	985.300537	19.026552
242.759186	957.994263	1529.150024	951.167725	-1.195215
243.137451	944.341125	1622.446289	1051.290649	15.771820
243.515686	939.790100	1670.232300	967.096313	3.738313
243.893890	928.412476	1683.885376	992.127075	8.433737
244.272049	869.248962	1665.681274	998.953613	16.285709
244.650192	1026.259888	1590.588989	953.443237	-12.903224
245.028290	932.963501	1590.588989	964.820801	4.844292
245.406357	928.412476	1510.945801	987.576050	10.156256
245.784393	912.483826	1497.292725	967.096313	9.338518
246.162384	973.922913	1433.578125	948.892151	-5.445551
246.540359	889.728638	1549.629639	926.136963	5.517241
246.918289	955.718750	1620.170776	914.759338	-6.164390
247.296204	964.820801	1795.385864	1023.984375	7.123292
247.674057	1005.780212	1995.631714	1026.259888	2.068964
248.051895	996.678101	2339.235352	1026.259888	2.203391
248.429703	919.310425	2359.715088	1026.259888	7.424960
248.807465	907.932800	2325.582275	1058.117188	10.593902
249.185196	1001.229126	2093.479248	1010.331238	0.833336
249.562897	946.616638	1959.223389	1019.433350	7.191016
249.940567	889.728638	1884.131226	989.851563	10.068651
250.318192	976.198425	1642.926025	1005.780212	4.436862
250.695801	960.269775	1667.956787	973.922913	1.929262
251.073349	1019.433350	1661.130127	964.820801	-8.510647
251.450882	992.127075	1567.833862	967.096313	-4.347832
251.828400	985.300537	1563.282837	987.576050	0.393699
252.205872	914.759338	1613.344238	1062.668213	21.172642
252.583313	905.657288	1633.823975	1080.872437	24.062506
252.960693	978.473938	1733.946899	1001.229126	3.012045
253.338074	983.024963	1768.079712	1012.606750	3.768118
253.715408	951.167725	1722.569214	855.595825	-12.389385
254.092682	928.412476	1720.293701	935.239075	0.862074
254.469955	894.279663	1570.109375	937.514587	6.397310
254.847198	930.687988	1658.854614	1037.637451	14.687499
255.224365	866.973450	1565.558350	962.545288	13.680777
255.601563	919.310425	1535.976563	992.127075	11.808116
255.978683	1005.780212	1576.935913	930.687988	-13.147417
256.355743	896.555176	1576.935913	1019.433350	18.060207
256.732819	937.514587	1526.874512	996.678101	10.038605
257.109894	894.279663	1586.037964	969.371887	10.855269
257.486877	932.963501	1558.731689	996.678101	10.181822
257.863831	887.453125	1688.436401	1080.872437	24.147734
258.240753	1008.055725	1818.141113	985.300537	-2.808986
258.617645	914.759338	1788.559326	1044.463989	14.843746
258.994507	967.096313	1797.661377	987.576050	2.465760
259.371307	964.820801	1984.254150	996.678101	3.125001
259.748108	971.647400	2209.530762	976.198425	0.367646
260.124878	951.167725	2364.266113	1023.984375	5.152978
260.501617	919.310425	2555.409912	1049.015137	7.927679
260.878296	946.616638	2846.676514	996.678101	2.634731
261.254944	960.269775	2983.207764	1028.535400	3.374578
261.631561	851.044800	2924.044189	1067.219238	10.428099
262.008179	962.545288	2555.409912	1064.943726	6.428571
262.384735	928.412476	2252.765625	1092.250000	12.371136
262.761261	905.657288	2025.213501	1012.606750	9.552845
263.137695	873.799988	1952.396851	1039.912964	15.400839
263.514191	937.514587	1986.529663	1003.504700	6.290673
263.890594	976.198425	1934.192627	1080.872437	10.926373
264.267029	957.994263	1925.090576	1023.984375	6.823531
264.643341	898.830688	1868.202637	996.678101	10.093898
265.019653	953.443237	1790.834839	1003.504700	5.978262
265.395935	926.136963	1865.927002	989.851563	6.779663
265.772217	953.443237	1815.865601	996.678101	5.013189
266.148407	989.851563	1897.784302	1030.810913	4.511276
266.524597	976.198425	1884.131226	1044.463989	7.518790
266.900726	939.790100	2088.927979	1021.708862	7.128715
267.276855	937.514587	2136.714111	1042.188477	8.728647
267.652924	992.127075	2198.153076	1055.841675	5.283020
268.028992	1005.780212	2191.326416	953.443237	-4.414588
268.404999	996.678101	2204.979736	921.585938	-6.214687
268.781006	935.239075	2198.153076	1005.780212	5.585585
269.156921	946.616638	2195.877686	987.576050	3.278691
269.532837	967.096313	2245.938965	983.024963	1.245552
269.908661	901.106262	2209.530762	1030.810913	9.913040
270.284546	901.106262	2093.479248	1037.637451	11.450376
270.660339	976.198425	2141.265137	1021.708862	3.906252
271.036133	976.198425	2195.877686	980.749451	0.373133
271.411835	885.177612	2195.877686	964.820801	6.076385
271.787537	967.096313	2407.500977	971.647400	0.315959
272.163239	978.473938	2748.829102	1076.321289	5.526990
272.538849	939.790100	2796.614990	1101.352051	8.700979
272.914459	946.616638	2848.952148	1037.637451	4.784688
273.290070	864.697876	2673.737061	1076.321289	11.698112
273.665588	960.269775	2607.746826	1078.596802	7.182317
274.041046	960.269775	2562.236328	1033.086426	4.545454
274.416565	942.065613	2466.664551	978.473938	2.388059
274.791962	953.443237	2523.552490	1087.698975	8.550726
275.167389	905.657288	2421.154053	1030.810913	8.258257
275.542755	930.687988	2255.041016	935.239075	0.343646
275.918060	930.687988	2302.827148	1008.055725	5.638476
276.293365	948.892151	2402.949951	1037.637451	6.103285
276.668640	976.198425	2437.082764	1023.984375	3.271029
277.043854	955.718750	2400.674561	1058.117188	7.086614
277.419037	919.310425	2523.552490	1014.882263	5.957445
277.794189	928.412476	2544.032227	1064.943726	8.450705
278.169312	983.024963	2466.664551	992.127075	0.613499
278.544373	987.576050	2532.654541	987.576050	0.000000
278.919464	1028.535400	2437.082764	1103.627563	5.331178
279.294464	976.198425	2437.082764	1049.015137	4.984427
279.669464	928.412476	2450.735840	1060.392700	8.669658
280.044403	969.371887	2311.929199	948.892151	-1.525427
280.419312	985.300537	2439.358398	1069.494751	5.790293
280.794189	998.953613	2521.277100	1085.423462	5.680123
281.169037	1030.810913	2603.195801	1069.494751	2.460202
281.543854	935.239075	2644.155273	1042.188477	6.258317
281.918671	960.269775	2701.043213	1087.698975	7.320263
282.293365	955.718750	2853.503174	1092.250000	7.194244
282.668091	980.749451	3012.789551	1117.280762	6.718928
283.042786	957.994263	2980.932129	1105.903076	7.311584
283.417419	973.922913	3112.912354	1101.352051	5.957446
283.792053	923.861450	3008.238525	1115.005249	9.170309
284.166595	989.851563	2974.105713	1023.984375	1.720183
284.541138	921.585938	2782.961914	1135.484863	11.491441
284.915619	937.514587	2835.298828	1085.423462	7.793767
285.290100	898.830688	2935.421875	1030.810913	6.480448
285.664520	983.024963	3015.064941	1053.566162	3.471447
286.038940	935.239075	3035.544678	1110.454102	8.342359
286.413300	932.963501	3231.239502	1108.178589	7.623762
286.787628	944.341125	3231.239502	1124.107300	7.860698
287.161896	964.820801	3345.015625	1160.515625	8.221799
287.536194	930.687988	3317.709229	1240.158813	12.964728
287.910400	937.514587	3231.239502	1219.679199	12.301589
288.284607	939.790100	3060.575439	1149.138062	9.871247
288.658752	878.351013	2978.656738	1171.893188	13.976165
289.032867	926.136963	2869.431641	1196.923950	13.934427
289.406921	960.269775	3005.962891	1149.138062	9.232484
289.781006	960.269775	3010.513916	1203.750488	11.875693
290.154999	964.820801	2921.768799	1183.270874	11.162794
290.529022	953.443237	3110.636963	1124.107300	7.911392
290.902954	928.412476	3438.312012	1235.607788	12.239347
291.276825	971.647400	3392.801514	1242.434326	11.184209
291.650757	930.687988	3370.046387	1326.628662	16.231344
292.024597	948.892151	3253.994629	1249.260864	13.030601
292.398407	971.647400	3217.586426	1276.567139	13.576492
292.772156	914.759338	3267.647949	1294.771362	16.150871
293.145905	946.616638	3056.024414	1306.148926	17.044230
293.519592	962.545288	2983.207764	1310.699951	17.229729
293.893280	942.065613	2971.830078	1260.638550	15.695069
294.266907	976.198425	3108.361328	1201.474976	10.565636
294.640533	937.514587	3372.321777	1269.740601	13.644859
295.014069	912.483826	3445.138428	1406.271851	19.496857
295.387604	910.208313	3495.199951	1340.281738	16.637323
295.761078	898.830688	3586.220703	1410.822876	19.051651
296.134552	917.034912	3620.353516	1381.241089	17.171715
296.507996	882.902100	3704.547852	1306.148926	14.999999
296.881378	921.585938	3743.231689	1372.139038	15.967742
297.254730	921.585938	3736.405273	1392.618774	16.734034
297.628021	964.820801	3982.161377	1424.476074	15.233788
298.001282	953.443237	4161.927734	1454.057739	15.602835
298.374573	910.208313	4032.222900	1406.271851	15.889213
298.747803	953.443237	4171.029785	1451.782227	15.487975
299.121002	885.177612	3811.497314	1378.965576	16.874025
299.494141	1014.882263	3652.210938	1360.761475	13.114756
299.867188	944.341125	3463.342773	1410.822876	18.518517
300.240265	935.239075	3483.822266	1344.832764	16.071426
300.613312	914.759338	3351.842041	1383.516602	19.234360
300.986328	919.310425	3288.127441	1344.832764	17.963497
301.359314	976.198425	3340.464600	1274.291626	12.608276
301.732239	898.830688	3326.811523	1417.649414	21.368319
302.105103	1053.566162	3499.750977	1381.241089	13.395347
302.477997	976.198425	3440.587402	1278.842651	12.280701
302.850830	944.341125	3381.423828	1356.210449	16.900095
303.223602	946.616638	3228.964111	1340.281738	17.248255
303.596375	923.861450	3144.769775	1283.393677	16.188522
303.969116	894.279663	3160.698486	1333.455200	19.377508
304.341766	957.994263	3112.912354	1347.108276	18.057022
304.714478	923.861450	3108.361328	1212.852539	13.229164
305.087067	910.208313	3119.739014	1308.424438	18.022655
305.459656	898.830688	3208.484375	1285.669312	16.748772
305.832214	841.942688	3074.228516	1297.046875	20.387362
306.204681	964.820801	3017.340576	1317.526489	17.184034
306.577148	935.239075	3056.024414	1301.597900	17.274677
306.949646	930.687988	3242.617188	1281.118164	15.157478
307.322021	912.483826	3110.636963	1276.567139	16.563147
307.694397	994.402588	3128.841064	1290.220337	13.859278
308.066742	923.861450	3158.422852	1244.709839	14.358450
308.439026	928.412476	3288.127441	1274.291626	14.657667
308.811279	926.136963	3315.433838	1351.659302	17.809521
309.183502	964.820801	3397.352539	1367.588013	16.557531
309.555695	917.034912	3634.006836	1324.353149	14.991625
309.927887	980.749451	3606.700439	1344.832764	13.864818
310.299988	983.024963	3513.404053	1378.965576	15.647482
310.672058	892.004150	3670.415039	1419.924927	19.000816
311.044128	894.279663	3677.241699	1381.241089	17.497955
311.416168	969.371887	3611.251465	1374.414551	15.331610
311.788147	917.034912	3586.220703	1433.578125	19.352089
312.160065	1014.882263	3775.089111	1408.547363	14.262159
312.531982	983.024963	3531.608398	1388.067749	15.892859
312.903870	926.136963	3542.985840	1367.588013	16.869566
313.275696	907.932800	3429.209961	1244.709839	13.357399
313.647491	992.127075	3381.423828	1344.832764	14.761903
314.019318	964.820801	3360.944336	1269.740601	12.725546
314.391022	1012.606750	3340.464600	1326.628662	13.489738
314.762726	939.790100	3451.965088	1342.557251	16.032606
315.134369	946.616638	3533.883789	1349.383789	15.567282
315.505981	926.136963	3738.680664	1326.628662	14.239484
315.877594	948.892151	3779.640137	1417.649414	16.559484
316.249146	992.127075	3611.251465	1306.148926	11.989573
316.620636	978.473938	3426.934326	1317.526489	13.847581
316.992157	1008.055725	3381.423828	1301.597900	12.368169
317.363586	983.024963	3370.046387	1258.363037	11.534797
317.735016	937.514587	3306.331787	1249.260864	13.160419
318.106354	992.127075	3363.219727	1269.740601	11.708252
318.477722	912.483826	3356.393066	1233.332275	13.128493
318.849060	912.483826	3347.291016	1281.118164	15.140186
319.220306	969.371887	3374.597412	1319.802124	14.569537
319.591522	921.585938	3456.516113	1221.954712	11.849194
319.962738	942.065613	3495.199951	1287.944824	13.547239
320.333923	932.963501	3529.332764	1265.189575	12.795795
320.705017	948.892151	3556.638916	1360.761475	15.794068
321.076111	903.381775	3476.995850	1308.424438	15.738283
321.447144	942.065613	3340.464600	1283.393677	14.231497
321.818176	892.004150	3203.933350	1290.220337	17.224411
