Jaz Data File
++++++++++++++++++++++++++++++++++++
Date: Wed Feb 07 06:52:06 2024
User: jaz
Dark Spectrum Present: Yes
Reference Spectrum Present: Yes
Processed Spectrum Present: Yes
Spectrometers: JAZA3692
Integration Time (usec): 42900 (JAZA3692)
Spectra Averaged: 1 (JAZA3692)
Boxcar Smoothing: 0 (JAZA3692)
Correct for Electrical Dark: No (JAZA3692)
Strobe/Lamp Enabled: Yes (JAZA3692)
Correct for Detector Non-linearity: No (JAZA3692)
Correct for Stray Light: No (JAZA3692)
Number of Pixels in Processed Spectrum: 2048
>>>>>Begin Processed Spectral Data<<<<<
W	D	R	S	P
190.244385	0.000000	0.000000	0.000000	0.000000
190.627136	0.000000	0.000000	0.000000	0.000000
191.009842	907.932800	948.892151	973.922913	161.111221
191.392532	985.300537	1028.535400	976.198425	-21.052713
191.775177	917.034912	967.096313	953.443237	72.727341
192.157791	989.851563	903.381775	978.473938	13.157919
192.540390	992.127075	917.034912	976.198425	21.212133
192.922943	905.657288	1001.229126	937.514587	33.333355
193.305481	1003.504700	1035.361938	955.718750	-150.000290
193.687958	1010.331238	1023.984375	992.127075	-133.333191
194.070419	948.892151	1019.433350	957.994263	12.903256
194.452866	1064.943726	928.412476	955.718750	79.999985
194.835251	1030.810913	1012.606750	967.096313	350.000153
195.217621	1008.055725	976.198425	939.790100	214.285660
195.599960	1039.912964	1003.504700	976.198425	175.000214
195.982254	1080.872437	976.198425	969.371887	106.521713
196.364517	1033.086426	971.647400	1001.229126	51.851894
196.746750	962.545288	1003.504700	978.473938	38.888863
197.128952	1014.882263	994.402588	987.576050	133.333237
197.511139	1067.219238	1001.229126	964.820801	155.172394
197.893280	992.127075	1010.331238	998.953613	37.499874
198.275391	998.953613	935.239075	1035.361938	-57.142883
198.657471	1001.229126	1003.504700	1005.780212	199.997314
199.039520	1049.015137	967.096313	976.198425	88.888863
199.421539	948.892151	1037.637451	994.402588	51.282082
199.803513	967.096313	973.922913	948.892151	-266.665192
200.185471	1001.229126	948.892151	967.096313	65.217400
200.567383	1010.331238	1010.331238	921.585938	0.000000
200.949265	989.851563	989.851563	969.371887	0.000000
201.331131	930.687988	1044.463989	946.616638	14.000009
201.712967	946.616638	1037.637451	926.136963	-22.499992
202.094742	976.198425	1030.810913	989.851563	25.000029
202.476517	980.749451	1026.259888	978.473938	-4.999980
202.858231	957.994263	1055.841675	960.269775	2.325573
203.239944	969.371887	994.402588	917.034912	-209.091125
203.621582	955.718750	935.239075	937.514587	88.888924
204.003235	937.514587	969.371887	948.892151	35.714149
204.384827	935.239075	1019.433350	932.963501	-2.702765
204.766388	937.514587	1017.157776	901.106262	-45.714298
205.147934	985.300537	1039.912964	926.136963	-108.333542
205.529449	1021.708862	953.443237	1005.780212	23.333340
205.910904	976.198425	1044.463989	892.004150	-123.333450
206.292343	948.892151	1019.433350	914.759338	-48.387062
206.673767	930.687988	992.127075	1019.433350	144.444473
207.055115	998.953613	980.749451	989.851563	49.999832
207.436462	1010.331238	1012.606750	948.892151	-2700.010742
207.817780	1014.882263	1069.494751	1037.637451	41.666637
208.199051	967.096313	976.198425	992.127075	274.999512
208.580307	994.402588	983.024963	896.555176	859.998596
208.961517	928.412476	971.647400	989.851563	142.105225
209.342712	983.024963	987.576050	967.096313	-349.996643
209.723846	976.198425	989.851563	930.687988	-333.333191
210.104965	1096.801025	1069.494751	935.239075	591.666016
210.486069	955.718750	1074.045776	951.167725	-3.846142
210.867111	985.300537	1044.463989	1012.606750	46.153854
211.248123	962.545288	1046.739624	919.310425	-51.351273
211.629120	962.545288	998.953613	996.678101	93.750023
212.010071	994.402588	1044.463989	944.341125	-100.000122
212.390991	951.167725	1026.259888	953.443237	3.030293
212.771881	983.024963	923.861450	944.341125	65.384621
213.152756	962.545288	992.127075	967.096313	15.384552
213.533569	962.545288	944.341125	914.759338	262.500122
213.914368	930.687988	960.269775	998.953613	230.769104
214.295135	989.851563	985.300537	980.749451	200.001343
214.675858	989.851563	928.412476	869.248962	196.296219
215.056549	978.473938	992.127075	1014.882263	266.666382
215.437225	1019.433350	978.473938	976.198425	105.555534
215.817841	978.473938	1071.770264	948.892151	-31.707344
216.198441	1010.331238	985.300537	939.790100	281.818481
216.579025	928.412476	1028.535400	953.443237	25.000031
216.959549	1053.566162	1017.157776	903.381775	412.499420
217.340057	973.922913	1012.606750	882.902100	-235.294159
217.720535	1003.504700	1008.055725	962.545288	-900.004028
218.100967	1003.504700	1001.229126	878.351013	5499.874023
218.481369	994.402588	987.576050	935.239075	866.669373
218.861740	1003.504700	1067.219238	969.371887	-53.571465
219.242065	955.718750	978.473938	930.687988	-110.000244
219.622391	969.371887	1019.433350	971.647400	4.545438
220.002670	994.402588	1012.606750	912.483826	-450.000153
220.382919	976.198425	962.545288	951.167725	183.332962
220.763123	932.963501	996.678101	948.892151	25.000000
221.143295	937.514587	1014.882263	930.687988	-8.823581
221.523453	992.127075	1005.780212	951.167725	-299.999542
221.903549	957.994263	1003.504700	996.678101	84.999924
222.283630	1046.739624	1023.984375	996.678101	219.999893
222.663696	976.198425	1035.361938	967.096313	-15.384671
223.043701	923.861450	978.473938	989.851563	120.833374
223.423676	978.473938	1033.086426	948.892151	-54.166710
223.803635	967.096313	1012.606750	951.167725	-34.999859
224.183548	928.412476	996.678101	980.749451	76.666664
224.563431	962.545288	1014.882263	994.402588	60.869587
224.943283	946.616638	1008.055725	1019.433350	118.518547
225.323105	937.514587	1058.117188	960.269775	18.867908
225.702881	1008.055725	1033.086426	1028.535400	81.818230
226.082642	919.310425	1026.259888	989.851563	65.957451
226.462357	1017.157776	1035.361938	960.269775	-312.499969
226.842041	998.953613	967.096313	960.269775	121.428490
227.221695	926.136963	1019.433350	978.473938	56.097538
227.601318	937.514587	1021.708862	898.830688	-45.945995
227.980911	989.851563	996.678101	964.820801	-366.668457
228.360474	976.198425	1021.708862	1005.780212	65.000008
228.739990	1028.535400	1135.484863	910.208313	-110.638321
229.119476	971.647400	1124.107300	1008.055725	23.880590
229.498932	1005.780212	1130.933838	937.514587	-54.545464
229.878372	996.678101	1187.821899	937.514587	-30.952358
230.257736	1008.055725	1212.852539	960.269775	-23.333345
230.637115	980.749451	1203.750488	876.075500	-46.938774
231.016449	992.127075	1128.658325	948.892151	-31.666687
231.395737	903.381775	1121.831787	946.616638	19.791651
231.774994	937.514587	1014.882263	919.310425	-23.529417
232.154221	964.820801	1146.862427	953.443237	-6.249979
232.533417	937.514587	1146.862427	957.994263	9.782606
232.912582	917.034912	1167.342163	1017.157776	39.999985
233.291702	928.412476	1115.005249	985.300537	30.487816
233.670792	996.678101	1119.556274	969.371887	-22.222183
234.049866	907.932800	1133.209351	946.616638	17.171711
234.428894	957.994263	1176.444214	862.422363	-43.750019
234.807892	973.922913	1183.270874	983.024963	4.347810
235.186874	985.300537	1133.209351	989.851563	3.076913
235.565781	967.096313	1212.852539	901.106262	-26.851833
235.944687	1028.535400	1185.546387	923.861450	-66.666641
236.323547	948.892151	1256.087524	923.861450	-8.148137
236.702377	926.136963	1201.474976	973.922913	17.355377
237.081177	980.749451	1174.168701	912.483826	-35.294121
237.459946	980.749451	1190.097412	935.239075	-21.739107
237.838669	942.065613	1165.066650	996.678101	24.489790
238.217361	928.412476	1256.087524	937.514587	2.777786
238.596039	994.402588	1208.301514	1044.463989	23.404232
238.974670	942.065613	1208.301514	1042.188477	37.606823
239.353271	957.994263	1224.230225	917.034912	-15.384604
239.731842	980.749451	1240.158813	939.790100	-15.789465
240.110367	919.310425	1158.240112	935.239075	6.666668
240.488876	928.412476	1237.883301	951.167725	7.352954
240.867340	964.820801	1253.812012	928.412476	-12.598419
241.245789	1019.433350	1258.363037	957.994263	-25.714296
241.624176	969.371887	1228.781250	1017.157776	18.421034
242.002548	957.994263	1467.710938	996.678101	7.589283
242.380890	1023.984375	1495.017212	921.585938	-21.739130
242.759186	1019.433350	1533.701050	964.820801	-10.619478
243.137451	932.963501	1592.864502	994.402588	9.310349
243.515686	971.647400	1658.854614	928.412476	-6.291396
243.893890	964.820801	1658.854614	1017.157776	7.540984
244.272049	967.096313	1517.772339	1003.504700	6.611580
244.650192	889.728638	1606.517700	969.371887	11.111114
245.028290	905.657288	1506.394775	951.167725	7.575761
245.406357	960.269775	1492.741699	948.892151	-2.136756
245.784393	955.718750	1447.231201	985.300537	6.018522
246.162384	907.932800	1501.843750	1014.882263	18.007660
246.540359	948.892151	1592.864502	948.892151	0.000000
246.918289	955.718750	1615.619751	1008.055725	7.931035
247.296204	989.851563	1756.702026	894.279663	-12.462913
247.674057	973.922913	2066.172852	1058.117188	7.708333
248.051895	976.198425	2243.663574	983.024963	0.538598
248.429703	948.892151	2352.888428	992.127075	3.079419
248.807465	1010.331238	2336.959961	1080.872437	5.317328
249.185196	1019.433350	2095.754639	1049.015137	2.748416
249.562897	964.820801	1893.233276	1071.770264	11.519607
249.940567	1001.229126	1840.896362	962.545288	-4.607044
250.318192	1021.708862	1779.457275	992.127075	-3.903906
250.695801	994.402588	1649.752563	983.024963	-1.736114
251.073349	980.749451	1579.211426	1030.810913	8.365020
251.450882	955.718750	1501.843750	1008.055725	9.583333
251.828400	1053.566162	1524.598877	1010.331238	-9.178752
252.205872	987.576050	1565.558350	885.177612	-17.716536
252.583313	926.136963	1636.099487	987.576050	8.653850
252.960693	980.749451	1722.569214	957.994263	-3.067482
253.338074	955.718750	1913.713013	978.473938	2.375295
253.715408	1019.433350	1845.447388	980.749451	-4.683201
254.092682	923.861450	1665.681274	992.127075	9.202454
254.469955	989.851563	1654.303589	987.576050	-0.342465
254.847198	937.514587	1574.660400	1058.117188	18.928572
255.224365	1017.157776	1508.670288	1008.055725	-1.851845
255.601563	910.208313	1506.394775	994.402588	14.122138
255.978683	973.922913	1547.354126	973.922913	0.000000
256.355743	976.198425	1499.568237	1017.157776	7.826082
256.732819	930.687988	1570.109375	1026.259888	14.946622
257.109894	944.341125	1549.629639	903.381775	-6.766913
257.486877	1005.780212	1576.935913	978.473938	-4.780881
257.863831	1028.535400	1683.885376	1012.606750	-2.430556
258.240753	1008.055725	1672.507813	1087.698975	11.986304
258.617645	1017.157776	1692.987427	962.545288	-8.080807
258.994507	1003.504700	1799.937012	980.749451	-2.857148
259.371307	980.749451	1836.345337	1008.055725	3.191492
259.748108	985.300537	2125.336426	1037.637451	4.590813
260.124878	998.953613	2314.204590	983.024963	-1.211073
260.501617	898.830688	2500.797363	935.239075	2.272731
260.878296	919.310425	2803.441650	1074.045776	8.212557
261.254944	951.167725	2889.911377	1085.423462	6.924883
261.631561	989.851563	2864.880615	1023.984375	1.820388
262.008179	946.616638	2521.277100	1060.392700	7.225435
262.384735	960.269775	2168.571289	994.402588	2.824859
262.761261	973.922913	2018.386963	1008.055725	3.267974
263.137695	926.136963	2027.489014	1021.708862	8.677689
263.514191	928.412476	1934.192627	1001.229126	7.239818
263.890594	996.678101	1970.601074	1014.882263	1.869158
264.267029	944.341125	1909.161987	937.514587	-0.707545
264.643341	978.473938	1875.029175	1010.331238	3.553300
265.019653	942.065613	1845.447388	932.963501	-1.007560
265.395935	992.127075	1831.794189	992.127075	0.000000
265.772217	1017.157776	1863.651489	1055.841675	4.569898
266.148407	953.443237	1829.518677	1046.739624	10.649355
266.524597	992.127075	1970.601074	955.718750	-3.720929
266.900726	926.136963	2029.764526	987.576050	5.567013
267.276855	967.096313	2004.733887	1026.259888	5.701757
267.652924	967.096313	2241.387939	1021.708862	4.285718
268.028992	953.443237	2168.571289	992.127075	3.183519
268.404999	955.718750	2118.509766	996.678101	3.522503
268.781006	894.279663	2111.683350	1010.331238	9.532711
269.156921	980.749451	2125.336426	1030.810913	4.373758
269.532837	973.922913	2170.846924	948.892151	-2.091257
269.908661	953.443237	2086.652588	996.678101	3.815258
270.284546	892.004150	2143.540527	1026.259888	10.727274
270.660339	1023.984375	2148.091553	1003.504700	-1.821862
271.036133	937.514587	2141.265137	1010.331238	6.049148
271.411835	944.341125	2364.266113	1033.086426	6.249999
271.787537	969.371887	2448.460449	1039.912964	4.769226
272.163239	967.096313	2616.848877	1071.770264	6.344827
272.538849	1035.361938	2780.686523	1058.117188	1.303783
272.914459	987.576050	2812.543701	1067.219238	4.364088
273.290070	980.749451	2632.777588	1053.566162	4.407716
273.665588	944.341125	2491.695313	1037.637451	6.029409
274.041046	996.678101	2537.205811	960.269775	-2.363367
274.416565	1010.331238	2441.633789	1039.912964	2.066770
274.791962	1005.780212	2389.296875	1001.229126	-0.328951
275.167389	971.647400	2316.480225	1008.055725	2.707275
275.542755	983.024963	2402.949951	948.892151	-2.403846
275.918060	989.851563	2245.938965	987.576050	-0.181159
276.293365	1005.780212	2336.959961	946.616638	-4.444447
276.668640	976.198425	2475.766602	980.749451	0.303489
277.043854	1023.984375	2489.419678	1028.535400	0.310558
277.419037	937.514587	2514.450439	989.851563	3.318903
277.794189	964.820801	2439.358398	1060.392700	6.481483
278.169312	971.647400	2491.695313	1005.780212	2.245509
278.544373	976.198425	2514.450439	964.820801	-0.739646
278.919464	930.687988	2509.899414	1001.229126	4.466858
279.294464	935.239075	2330.133301	1080.872437	10.440458
279.669464	985.300537	2459.837891	1035.361938	3.395058
280.044403	1012.606750	2380.194824	1060.392700	3.494177
280.419312	944.341125	2437.082764	1044.463989	6.707314
280.794189	1019.433350	2430.256104	1003.504700	-1.129033
281.169037	1037.637451	2559.960938	998.953613	-2.541105
281.543854	998.953613	2553.134277	960.269775	-2.489018
281.918671	980.749451	2589.542725	1033.086426	3.253182
282.293365	987.576050	2869.431641	1010.331238	1.209189
282.668091	926.136963	2878.533936	1053.566162	6.526808
283.042786	978.473938	3003.687500	1023.984375	2.247192
283.417419	967.096313	3005.962891	998.953613	1.562500
283.792053	980.749451	2889.911377	1035.361938	2.860548
284.166595	973.922913	2937.697266	987.576050	0.695250
284.541138	960.269775	2785.237549	1021.708862	3.366585
284.915619	998.953613	2939.972900	1069.494751	3.634232
285.290100	1055.841675	2921.768799	1115.005249	3.170733
285.664520	996.678101	2894.462402	1044.463989	2.517983
286.038940	930.687988	2935.421875	1030.810913	4.994325
286.413300	987.576050	3140.218750	1103.627563	5.391119
286.787628	896.555176	3165.249512	1103.627563	9.127381
287.161896	955.718750	3219.861816	1069.494751	5.025124
287.536194	1001.229126	3304.056152	1124.107300	5.335970
287.910400	987.576050	3137.943115	1117.280762	6.031747
288.284607	937.514587	3074.228516	1060.392700	5.750799
288.658752	955.718750	2935.421875	1094.525513	7.011494
289.032867	971.647400	2814.819336	1046.739624	4.074076
289.406921	1005.780212	2851.227539	1133.209351	6.905055
289.781006	912.483826	2853.503174	1037.637451	6.447830
290.154999	1008.055725	2878.533936	1096.801025	4.744524
290.529022	1003.504700	3169.800537	1115.005249	5.147060
290.902954	910.208313	3112.912354	1055.841675	6.611572
291.276825	1026.259888	3253.994629	1042.188477	0.715013
291.650757	985.300537	3331.362549	1121.831787	5.819592
292.024597	960.269775	3297.229736	1074.045776	4.868547
292.398407	962.545288	3265.372314	1058.117188	4.150198
292.772156	969.371887	3119.739014	1074.045776	4.867722
293.145905	978.473938	3115.187988	1144.586914	7.774226
293.519592	989.851563	2969.554688	1074.045776	4.252871
293.893280	1037.637451	3053.749023	1046.739624	0.451472
294.266907	917.034912	3110.636963	1162.791138	11.203319
294.640533	980.749451	3294.954102	1039.912964	2.556538
295.014069	978.473938	3249.443604	1171.893188	8.517034
295.387604	1001.229126	3547.536865	1149.138062	5.808762
295.761078	1019.433350	3588.496338	1146.862427	4.960138
296.134552	967.096313	3465.618164	1085.423462	4.735886
296.507996	967.096313	3547.536865	1142.311401	6.790123
296.881378	923.861450	3549.812500	1085.423462	6.152514
297.254730	939.790100	3729.578613	1149.138062	7.504080
297.628021	1028.535400	3988.988037	1167.342163	4.688701
298.001282	953.443237	4034.498291	1080.872437	4.135895
298.374573	1019.433350	4091.386475	1115.005249	3.111112
298.747803	1001.229126	3909.344727	1174.168701	5.946791
299.121002	998.953613	3747.782715	1158.240112	5.794703
299.494141	885.177612	3602.149414	1062.668213	6.532663
299.867188	1001.229126	3565.741211	1133.209351	5.146407
300.240265	1001.229126	3388.250488	1064.943726	2.669209
300.613312	969.371887	3367.770752	1115.005249	6.072107
300.986328	1026.259888	3345.015625	1108.178589	3.532873
301.359314	987.576050	3203.933350	1162.791138	7.905543
301.732239	951.167725	3140.218750	1110.454102	7.276504
302.105103	921.585938	3265.372314	1144.586914	9.514561
302.477997	953.443237	3188.004639	1158.240112	9.164969
302.850830	1003.504700	3367.770752	1085.423462	3.464871
303.223602	1008.055725	3135.667725	1067.219238	2.780747
303.596375	1051.290649	3208.484375	1037.637451	-0.632915
303.969116	973.922913	3071.953125	1124.107300	7.158352
304.341766	987.576050	3076.504150	1087.698975	4.793028
304.714478	980.749451	3156.147461	1155.964600	8.054396
305.087067	944.341125	3162.973877	1030.810913	3.897436
305.459656	989.851563	3144.769775	1092.250000	4.751848
305.832214	1003.504700	3172.075928	1062.668213	2.728225
306.204681	971.647400	3040.095703	1039.912964	3.300327
306.577148	907.932800	3056.024414	1023.984375	5.402543
306.949646	998.953613	3140.218750	1058.117188	2.763020
307.322021	921.585938	3167.524902	1033.086426	4.964538
307.694397	935.239075	3126.565674	1158.240112	10.176531
308.066742	1019.433350	3053.749023	1080.872437	3.020135
308.439026	980.749451	3324.535889	1124.107300	6.116507
308.811279	1001.229126	3217.586426	1085.423462	3.798771
309.183502	998.953613	3417.832275	1149.138062	6.208846
309.555695	946.616638	3481.546875	1087.698975	5.565531
309.927887	951.167725	3415.556641	1085.423462	5.447831
310.299988	1023.984375	3556.638916	1124.107300	3.953280
310.672058	942.065613	3499.750977	1101.352051	6.227757
311.044128	946.616638	3558.914551	1115.005249	6.445996
311.416168	914.759338	3654.486328	1112.729614	7.225913
311.788147	942.065613	3636.282227	1089.974487	5.489866
312.160065	967.096313	3615.802490	1058.117188	3.436428
312.531982	944.341125	3549.812500	1023.984375	3.056769
312.903870	992.127075	3433.760986	1078.596802	3.541470
313.275696	948.892151	3417.832275	1083.147949	5.437791
313.647491	1014.882263	3319.984863	1103.627563	3.849950
314.019318	1001.229126	3404.179199	1105.903076	4.356060
314.391022	1017.157776	3415.556641	1039.912964	0.948766
314.762726	1003.504700	3445.138428	1051.290649	1.957130
315.134369	989.851563	3563.465576	1199.199463	8.134394
315.505981	937.514587	3699.996826	1089.974487	5.518946
315.877594	976.198425	3759.160400	1151.413574	6.295995
316.249146	1049.015137	3593.047363	1149.138062	3.935600
316.620636	928.412476	3467.893799	1071.770264	5.645160
316.992157	973.922913	3276.750000	1151.413574	7.707511
317.363586	896.555176	3290.403076	1108.178589	8.840303
317.735016	985.300537	3256.270264	1067.219238	3.607212
318.106354	960.269775	3304.056152	1119.556274	6.796118
318.477722	1026.259888	3347.291016	1074.045776	2.058821
318.849060	919.310425	3253.994629	1049.015137	5.555557
319.220306	910.208313	3244.892578	1071.770264	6.920077
319.591522	1014.882263	3442.863037	1044.463989	1.218367
319.962738	985.300537	3454.240479	1058.117188	2.949308
320.333923	944.341125	3304.056152	1062.668213	5.014465
320.705017	1042.188477	3310.882813	1128.658325	3.811437
321.076111	998.953613	3329.086914	1074.045776	3.222655
321.447144	978.473938	3283.576416	1149.138062	7.403754
321.818176	914.759338	3222.137451	1042.188477	5.522681
