Jaz Data File
++++++++++++++++++++++++++++++++++++
Date: Wed Feb 07 06:51:14 2024
User: jaz
Dark Spectrum Present: Yes
Reference Spectrum Present: Yes
Processed Spectrum Present: Yes
Spectrometers: JAZA3692
Integration Time (usec): 42900 (JAZA3692)
Spectra Averaged: 1 (JAZA3692)
Boxcar Smoothing: 0 (JAZA3692)
Correct for Electrical Dark: No (JAZA3692)
Strobe/Lamp Enabled: Yes (JAZA3692)
Correct for Detector Non-linearity: No (JAZA3692)
Correct for Stray Light: No (JAZA3692)
Number of Pixels in Processed Spectrum: 2048
>>>>>Begin Processed Spectral Data<<<<<
W	D	R	S	P
190.244385	0.000000	0.000000	0.000000	0.000000
190.627136	0.000000	0.000000	0.000000	0.000000
191.009842	907.932800	948.892151	937.514587	72.222305
191.392532	985.300537	1028.535400	926.136963	-136.842285
191.775177	917.034912	967.096313	923.861450	13.636331
192.157791	989.851563	903.381775	962.545288	31.578978
192.540390	992.127075	917.034912	1042.188477	-66.666611
192.922943	905.657288	1001.229126	935.239075	30.952410
193.305481	1003.504700	1035.361938	951.167725	-164.285980
193.687958	1010.331238	1023.984375	992.127075	-133.333191
194.070419	948.892151	1019.433350	983.024963	48.387062
194.452866	1064.943726	928.412476	1010.331238	39.999992
194.835251	1030.810913	1012.606750	932.963501	537.500183
195.217621	1008.055725	976.198425	985.300537	71.428490
195.599960	1039.912964	1003.504700	973.922913	181.250198
195.982254	1080.872437	976.198425	939.790100	134.782578
196.364517	1033.086426	971.647400	994.402588	62.962975
196.746750	962.545288	1003.504700	998.953613	88.888786
197.128952	1014.882263	994.402588	987.576050	133.333237
197.511139	1067.219238	1001.229126	1010.331238	86.206856
197.893280	992.127075	1010.331238	1021.708862	162.500122
198.275391	998.953613	935.239075	989.851563	14.285673
198.657471	1001.229126	1003.504700	964.820801	-1599.962402
199.039520	1049.015137	967.096313	1014.882263	41.666702
199.421539	948.892151	1037.637451	935.239075	-15.384562
199.803513	967.096313	973.922913	976.198425	133.333038
200.185471	1001.229126	948.892151	1008.055725	-13.043550
200.567383	1010.331238	1010.331238	994.402588	0.000000
200.949265	989.851563	989.851563	994.402588	0.000000
201.331131	930.687988	1044.463989	917.034912	-11.999961
201.712967	946.616638	1037.637451	937.514587	-9.999967
202.094742	976.198425	1030.810913	1008.055725	58.333363
202.476517	980.749451	1026.259888	980.749451	0.000000
202.858231	957.994263	1055.841675	992.127075	34.883717
203.239944	969.371887	994.402588	976.198425	27.272661
203.621582	955.718750	935.239075	1005.780212	-244.444611
204.003235	937.514587	969.371887	1010.331238	228.571320
204.384827	935.239075	1019.433350	996.678101	72.972923
204.766388	937.514587	1017.157776	969.371887	40.000031
205.147934	985.300537	1039.912964	983.024963	-4.166769
205.529449	1021.708862	953.443237	946.616638	110.000053
205.910904	976.198425	1044.463989	905.657288	-103.333412
206.292343	948.892151	1019.433350	885.177612	-90.322449
206.673767	930.687988	992.127075	919.310425	-18.518444
207.055115	998.953613	980.749451	914.759338	462.500122
207.436462	1010.331238	1012.606750	901.106262	-4800.016113
207.817780	1014.882263	1069.494751	939.790100	-137.499985
208.199051	967.096313	976.198425	910.208313	-624.997803
208.580307	994.402588	983.024963	1019.433350	-219.999893
208.961517	928.412476	971.647400	976.198425	110.526268
209.342712	983.024963	987.576050	944.341125	-849.991272
209.723846	976.198425	989.851563	973.922913	-16.666592
210.104965	1096.801025	1069.494751	962.545288	491.666260
210.486069	955.718750	1074.045776	971.647400	13.461549
210.867111	985.300537	1044.463989	955.718750	-50.000103
211.248123	962.545288	1046.739624	983.024963	24.324291
211.629120	962.545288	998.953613	930.687988	-87.500038
212.010071	994.402588	1044.463989	987.576050	-13.636331
212.390991	951.167725	1026.259888	951.167725	0.000000
212.771881	983.024963	923.861450	983.024963	-0.000000
213.152756	962.545288	992.127075	1033.086426	238.461380
213.533569	962.545288	944.341125	969.371887	-37.500210
213.914368	930.687988	960.269775	953.443237	76.923172
214.295135	989.851563	985.300537	989.851563	-0.000000
214.675858	989.851563	928.412476	953.443237	59.259224
215.056549	978.473938	992.127075	866.973450	-816.665710
215.437225	1019.433350	978.473938	992.127075	66.666664
215.817841	978.473938	1071.770264	976.198425	-2.439016
216.198441	1010.331238	985.300537	928.412476	327.273163
216.579025	928.412476	1028.535400	967.096313	38.636345
216.959549	1053.566162	1017.157776	960.269775	256.249725
217.340057	973.922913	1012.606750	951.167725	-58.823502
217.720535	1003.504700	1008.055725	1021.708862	400.001343
218.100967	1003.504700	1001.229126	957.994263	1999.954346
218.481369	994.402588	987.576050	944.341125	733.335999
218.861740	1003.504700	1067.219238	955.718750	-75.000069
219.242065	955.718750	978.473938	1019.433350	280.000336
219.622391	969.371887	1019.433350	973.922913	9.090876
220.002670	994.402588	1012.606750	948.892151	-250.000168
220.382919	976.198425	962.545288	955.718750	149.999771
220.763123	932.963501	996.678101	1012.606750	125.000000
221.143295	937.514587	1014.882263	917.034912	-26.470583
221.523453	992.127075	1005.780212	960.269775	-233.333191
221.903549	957.994263	1003.504700	944.341125	-30.000013
222.283630	1046.739624	1023.984375	962.545288	369.999634
222.663696	976.198425	1035.361938	926.136963	-84.615433
223.043701	923.861450	978.473938	942.065613	33.333332
223.423676	978.473938	1033.086426	957.994263	-37.499985
223.803635	967.096313	1012.606750	887.453125	-174.999832
224.183548	928.412476	996.678101	967.096313	56.666641
224.563431	962.545288	1014.882263	980.749451	34.782604
224.943283	946.616638	1008.055725	955.718750	14.814856
225.323105	937.514587	1058.117188	1042.188477	86.792397
225.702881	1008.055725	1033.086426	921.585938	-345.454926
226.082642	919.310425	1026.259888	971.647400	48.936172
226.462357	1017.157776	1035.361938	942.065613	-412.499969
226.842041	998.953613	967.096313	944.341125	171.428482
227.221695	926.136963	1019.433350	976.198425	53.658524
227.601318	937.514587	1021.708862	951.167725	16.216230
227.980911	989.851563	996.678101	987.576050	-33.333332
228.360474	976.198425	1021.708862	912.483826	-139.999969
228.739990	1028.535400	1135.484863	1003.504700	-23.404232
229.119476	971.647400	1124.107300	998.953613	17.910423
229.498932	1005.780212	1130.933838	1044.463989	30.909035
229.878372	996.678101	1187.821899	939.790100	-29.761887
230.257736	1008.055725	1212.852539	969.371887	-18.888887
230.637115	980.749451	1203.750488	973.922913	-3.061213
231.016449	992.127075	1128.658325	942.065613	-36.666668
231.395737	903.381775	1121.831787	971.647400	31.249998
231.774994	937.514587	1014.882263	1051.290649	147.058914
232.154221	964.820801	1146.862427	1062.668213	53.750019
232.533417	937.514587	1146.862427	953.443237	7.608700
232.912582	917.034912	1167.342163	1033.086426	46.363625
233.291702	928.412476	1115.005249	960.269775	17.073170
233.670792	996.678101	1119.556274	1017.157776	16.666651
234.049866	907.932800	1133.209351	932.963501	11.111099
234.428894	957.994263	1176.444214	1017.157776	27.083326
234.807892	973.922913	1183.270874	1017.157776	20.652153
235.186874	985.300537	1133.209351	967.096313	-12.307734
235.565781	967.096313	1212.852539	1008.055725	16.666683
235.944687	1028.535400	1185.546387	921.585938	-68.115913
236.323547	948.892151	1256.087524	917.034912	-10.370351
236.702377	926.136963	1201.474976	912.483826	-4.958682
237.081177	980.749451	1174.168701	1008.055725	14.117661
237.459946	980.749451	1190.097412	955.718750	-11.956506
237.838669	942.065613	1165.066650	994.402588	23.469387
238.217361	928.412476	1256.087524	983.024963	16.666660
238.596039	994.402588	1208.301514	980.749451	-6.382986
238.974670	942.065613	1208.301514	944.341125	0.854698
239.353271	957.994263	1224.230225	980.749451	8.547000
239.731842	980.749451	1240.158813	983.024963	0.877190
240.110367	919.310425	1158.240112	944.341125	10.476178
240.488876	928.412476	1237.883301	923.861450	-1.470583
240.867340	964.820801	1253.812012	978.473938	4.724412
241.245789	1019.433350	1258.363037	1014.882263	-1.904781
241.624176	969.371887	1228.781250	964.820801	-1.754403
242.002548	957.994263	1467.710938	998.953613	8.035709
242.380890	1023.984375	1495.017212	989.851563	-7.246377
242.759186	1019.433350	1533.701050	1080.872437	11.946908
243.137451	932.963501	1592.864502	1039.912964	16.206896
243.515686	971.647400	1658.854614	1005.780212	4.966888
243.893890	964.820801	1658.854614	973.922913	1.311480
244.272049	967.096313	1517.772339	1010.331238	7.851245
244.650192	889.728638	1606.517700	973.922913	11.746033
245.028290	905.657288	1506.394775	1046.739624	23.484856
245.406357	960.269775	1492.741699	973.922913	2.564105
245.784393	955.718750	1447.231201	953.443237	-0.462961
246.162384	907.932800	1501.843750	967.096313	9.961680
246.540359	948.892151	1592.864502	1033.086426	13.074206
246.918289	955.718750	1615.619751	957.994263	0.344826
247.296204	989.851563	1756.702026	1003.504700	1.780417
247.674057	973.922913	2066.172852	994.402588	1.874999
248.051895	976.198425	2243.663574	1037.637451	4.847394
248.429703	948.892151	2352.888428	1064.943726	8.265803
248.807465	1010.331238	2336.959961	1044.463989	2.572894
249.185196	1019.433350	2095.754639	1089.974487	6.553911
249.562897	964.820801	1893.233276	973.922913	0.980395
249.940567	1001.229126	1840.896362	992.127075	-1.084007
250.318192	1021.708862	1779.457275	1003.504700	-2.402402
250.695801	994.402588	1649.752563	1028.535400	5.208333
251.073349	980.749451	1579.211426	976.198425	-0.760454
251.450882	955.718750	1501.843750	1030.810913	13.749995
251.828400	1053.566162	1524.598877	1044.463989	-1.932387
252.205872	987.576050	1565.558350	1008.055725	3.543305
252.583313	926.136963	1636.099487	989.851563	8.974361
252.960693	980.749451	1722.569214	998.953613	2.453987
253.338074	955.718750	1913.713013	983.024963	2.850353
253.715408	1019.433350	1845.447388	1058.117188	4.683194
254.092682	923.861450	1665.681274	1003.504700	10.736198
254.469955	989.851563	1654.303589	994.402588	0.684929
254.847198	937.514587	1574.660400	983.024963	7.142851
255.224365	1017.157776	1508.670288	996.678101	-4.166664
255.601563	910.208313	1506.394775	1030.810913	20.229008
255.978683	973.922913	1547.354126	1049.015137	13.095245
256.355743	976.198425	1499.568237	1039.912964	12.173904
256.732819	930.687988	1570.109375	1001.229126	11.032026
257.109894	944.341125	1549.629639	983.024963	6.390975
257.486877	1005.780212	1576.935913	1033.086426	4.780870
257.863831	1028.535400	1683.885376	1010.331238	-2.777777
258.240753	1008.055725	1672.507813	1010.331238	0.342465
258.617645	1017.157776	1692.987427	1037.637451	3.030301
258.994507	1003.504700	1799.937012	1019.433350	2.000000
259.371307	980.749451	1836.345337	1003.504700	2.659579
259.748108	985.300537	2125.336426	962.545288	-1.996012
260.124878	998.953613	2314.204590	1076.321289	5.882351
260.501617	898.830688	2500.797363	1074.045776	10.937499
260.878296	919.310425	2803.441650	1049.015137	6.884059
261.254944	951.167725	2889.911377	1085.423462	6.924883
261.631561	989.851563	2864.880615	1074.045776	4.490289
262.008179	946.616638	2521.277100	1083.147949	8.670525
262.384735	960.269775	2168.571289	1014.882263	4.519773
262.761261	973.922913	2018.386963	939.790100	-3.267974
263.137695	926.136963	2027.489014	1026.259888	9.090910
263.514191	928.412476	1934.192627	1019.433350	9.049778
263.890594	996.678101	1970.601074	992.127075	-0.467288
264.267029	944.341125	1909.161987	1008.055725	6.603775
264.643341	978.473938	1875.029175	1099.076538	13.451776
265.019653	942.065613	1845.447388	951.167725	1.007560
265.395935	992.127075	1831.794189	944.341125	-5.691059
265.772217	1017.157776	1863.651489	973.922913	-5.107523
266.148407	953.443237	1829.518677	910.208313	-4.935069
266.524597	992.127075	1970.601074	1023.984375	3.255815
266.900726	926.136963	2029.764526	1019.433350	8.453611
267.276855	967.096313	2004.733887	1037.637451	6.798244
267.652924	967.096313	2241.387939	957.994263	-0.714283
268.028992	953.443237	2168.571289	980.749451	2.247188
268.404999	955.718750	2118.509766	1005.780212	4.305285
268.781006	894.279663	2111.683350	946.616638	4.299065
269.156921	980.749451	2125.336426	1069.494751	7.753479
269.532837	973.922913	2170.846924	1128.658325	12.927755
269.908661	953.443237	2086.652588	1096.801025	12.650600
270.284546	892.004150	2143.540527	985.300537	7.454548
270.660339	1023.984375	2148.091553	1014.882263	-0.809719
271.036133	937.514587	2141.265137	962.545288	2.079393
271.411835	944.341125	2364.266113	1008.055725	4.487181
271.787537	969.371887	2448.460449	1030.810913	4.153843
272.163239	967.096313	2616.848877	1074.045776	6.482758
272.538849	1035.361938	2780.686523	1028.535400	-0.391133
272.914459	987.576050	2812.543701	1112.729614	6.857851
273.290070	980.749451	2632.777588	1064.943726	5.096419
273.665588	944.341125	2491.695313	1053.566162	7.058825
274.041046	996.678101	2537.205811	1128.658325	8.567208
274.416565	1010.331238	2441.633789	1058.117188	3.338634
274.791962	1005.780212	2389.296875	1071.770264	4.769733
275.167389	971.647400	2316.480225	921.585938	-3.722505
275.542755	983.024963	2402.949951	1053.566162	4.967952
275.918060	989.851563	2245.938965	1019.433350	2.355074
276.293365	1005.780212	2336.959961	1023.984375	1.367521
276.668640	976.198425	2475.766602	1049.015137	4.855845
277.043854	1023.984375	2489.419678	1085.423462	4.192549
277.419037	937.514587	2514.450439	1069.494751	8.369407
277.794189	964.820801	2439.358398	983.024963	1.234568
278.169312	971.647400	2491.695313	1001.229126	1.946105
278.544373	976.198425	2514.450439	1037.637451	3.994081
278.919464	930.687988	2509.899414	1062.668213	8.357350
279.294464	935.239075	2330.133301	1042.188477	7.667205
279.669464	985.300537	2459.837891	1003.504700	1.234568
280.044403	1012.606750	2380.194824	1017.157776	0.332777
280.419312	944.341125	2437.082764	1087.698975	9.603661
280.794189	1019.433350	2430.256104	1080.872437	4.354841
281.169037	1037.637451	2559.960938	1014.882263	-1.494767
281.543854	998.953613	2553.134277	1083.147949	5.417281
281.918671	980.749451	2589.542725	1076.321289	5.940592
282.293365	987.576050	2869.431641	1014.882263	1.451026
282.668091	926.136963	2878.533936	1055.841675	6.643358
283.042786	978.473938	3003.687500	1067.219238	4.382022
283.417419	967.096313	3005.962891	1062.668213	4.687501
283.792053	980.749451	2889.911377	1080.872437	5.244342
284.166595	973.922913	2937.697266	1096.801025	6.257242
284.541138	960.269775	2785.237549	1071.770264	6.109724
284.915619	998.953613	2939.972900	1014.882263	0.820633
285.290100	1055.841675	2921.768799	1103.627563	2.560973
285.664520	996.678101	2894.462402	1089.974487	4.916069
286.038940	930.687988	2935.421875	1067.219238	6.810442
286.413300	987.576050	3140.218750	1046.739624	2.748416
286.787628	896.555176	3165.249512	1133.209351	10.431293
287.161896	955.718750	3219.861816	1201.474976	10.854271
287.536194	1001.229126	3304.056152	1049.015137	2.075102
287.910400	987.576050	3137.943115	1058.117188	3.280423
288.284607	937.514587	3074.228516	1080.872437	6.709268
288.658752	955.718750	2935.421875	1064.943726	5.517240
289.032867	971.647400	2814.819336	1085.423462	6.172841
289.406921	1005.780212	2851.227539	1085.423462	4.315661
289.781006	912.483826	2853.503174	1121.831787	10.785465
290.154999	1008.055725	2878.533936	1128.658325	6.447688
290.529022	1003.504700	3169.800537	1099.076538	4.411763
290.902954	910.208313	3112.912354	1096.801025	8.471075
291.276825	1026.259888	3253.994629	1110.454102	3.779364
291.650757	985.300537	3331.362549	1112.729614	5.431616
292.024597	960.269775	3297.229736	1121.831787	6.913341
292.398407	962.545288	3265.372314	1044.463989	3.557310
292.772156	969.371887	3119.739014	1187.821899	10.158731
293.145905	978.473938	3115.187988	1089.974487	5.218318
293.519592	989.851563	2969.554688	1078.596802	4.482755
293.893280	1037.637451	3053.749023	1144.586914	5.304739
294.266907	917.034912	3110.636963	1192.372925	12.551867
294.640533	980.749451	3294.954102	1069.494751	3.834808
295.014069	978.473938	3249.443604	1128.658325	6.613227
295.387604	1001.229126	3547.536865	1096.801025	3.753352
295.761078	1019.433350	3588.496338	1151.413574	5.137290
296.134552	967.096313	3465.618164	1110.454102	5.737704
296.507996	967.096313	3547.536865	1135.484863	6.525574
296.881378	923.861450	3549.812500	1119.556274	7.452341
297.254730	939.790100	3729.578613	1155.964600	7.748777
297.628021	1028.535400	3988.988037	1110.454102	2.767101
298.001282	953.443237	4034.498291	1199.199463	7.976366
298.374573	1019.433350	4091.386475	1130.933838	3.629629
298.747803	1001.229126	3909.344727	1217.403687	7.433492
299.121002	998.953613	3747.782715	1083.147949	3.062916
299.494141	885.177612	3602.149414	1094.525513	7.705193
299.867188	1001.229126	3565.741211	1135.484863	5.235137
300.240265	1001.229126	3388.250488	1115.005249	4.766448
300.613312	969.371887	3367.770752	1115.005249	6.072107
300.986328	1026.259888	3345.015625	1010.331238	-0.686948
301.359314	987.576050	3203.933350	1142.311401	6.981516
301.732239	951.167725	3140.218750	1128.658325	8.108107
302.105103	921.585938	3265.372314	1112.729614	8.155337
302.477997	953.443237	3188.004639	1087.698975	6.008147
302.850830	1003.504700	3367.770752	1021.708862	0.769971
303.223602	1008.055725	3135.667725	1078.596802	3.315505
303.596375	1051.290649	3208.484375	1103.627563	2.426157
303.969116	973.922913	3071.953125	1083.147949	5.206075
304.341766	987.576050	3076.504150	1117.280762	6.209151
304.714478	980.749451	3156.147461	1126.382813	6.694562
305.087067	944.341125	3162.973877	1151.413574	9.333336
305.459656	989.851563	3144.769775	1101.352051	5.174233
305.832214	1003.504700	3172.075928	1160.515625	7.240294
306.204681	971.647400	3040.095703	1135.484863	7.920791
306.577148	907.932800	3056.024414	1096.801025	8.792373
306.949646	998.953613	3140.218750	1103.627563	4.888416
307.322021	921.585938	3167.524902	1033.086426	4.964538
307.694397	935.239075	3126.565674	1121.831787	8.515057
308.066742	1019.433350	3053.749023	1037.637451	0.894851
308.439026	980.749451	3324.535889	1071.770264	3.883494
308.811279	1001.229126	3217.586426	1083.147949	3.696102
309.183502	998.953613	3417.832275	1044.463989	1.881466
309.555695	946.616638	3481.546875	1115.005249	6.642732
309.927887	951.167725	3415.556641	1112.729614	6.555860
310.299988	1023.984375	3556.638916	1089.974487	2.605571
310.672058	942.065613	3499.750977	1071.770264	5.071173
311.044128	946.616638	3558.914551	1092.250000	5.574914
311.416168	914.759338	3654.486328	1023.984375	3.986712
311.788147	942.065613	3636.282227	1121.831787	6.672298
312.160065	967.096313	3615.802490	1105.903076	5.240550
312.531982	944.341125	3549.812500	1080.872437	5.240177
312.903870	992.127075	3433.760986	1130.933838	5.684995
313.275696	948.892151	3417.832275	1076.321289	5.161289
313.647491	1014.882263	3319.984863	1128.658325	4.935835
314.019318	1001.229126	3404.179199	1060.392700	2.462122
314.391022	1017.157776	3415.556641	1067.219238	2.087287
314.762726	1003.504700	3445.138428	1130.933838	5.219011
315.134369	989.851563	3563.465576	992.127075	0.088417
315.505981	937.514587	3699.996826	1030.810913	3.377264
315.877594	976.198425	3759.160400	1146.862427	6.132459
316.249146	1049.015137	3593.047363	1071.770264	0.894451
316.620636	928.412476	3467.893799	1046.739624	4.659501
316.992157	973.922913	3276.750000	1055.841675	3.557313
317.363586	896.555176	3290.403076	1115.005249	9.125479
317.735016	985.300537	3256.270264	1087.698975	4.509018
318.106354	960.269775	3304.056152	1005.780212	1.941748
318.477722	1026.259888	3347.291016	1074.045776	2.058821
318.849060	919.310425	3253.994629	964.820801	1.949316
319.220306	910.208313	3244.892578	1019.433350	4.678364
319.591522	1014.882263	3442.863037	1087.698975	2.999065
319.962738	985.300537	3454.240479	1103.627563	4.792625
320.333923	944.341125	3304.056152	1051.290649	4.532307
320.705017	1042.188477	3310.882813	1080.872437	1.705120
321.076111	998.953613	3329.086914	1117.280762	5.078128
321.447144	978.473938	3283.576416	1035.361938	2.467916
321.818176	914.759338	3222.137451	1010.331238	4.142013
