Jaz Data File
++++++++++++++++++++++++++++++++++++
Date: Wed Feb 07 06:51:32 2024
User: jaz
Dark Spectrum Present: Yes
Reference Spectrum Present: Yes
Processed Spectrum Present: Yes
Spectrometers: JAZA3692
Integration Time (usec): 42900 (JAZA3692)
Spectra Averaged: 1 (JAZA3692)
Boxcar Smoothing: 0 (JAZA3692)
Correct for Electrical Dark: No (JAZA3692)
Strobe/Lamp Enabled: Yes (JAZA3692)
Correct for Detector Non-linearity: No (JAZA3692)
Correct for Stray Light: No (JAZA3692)
Number of Pixels in Processed Spectrum: 2048
>>>>>Begin Processed Spectral Data<<<<<
W	D	R	S	P
190.244385	0.000000	0.000000	0.000000	0.000000
190.627136	0.000000	0.000000	0.000000	0.000000
191.009842	907.932800	948.892151	969.371887	150.000153
191.392532	985.300537	1028.535400	885.177612	-231.579147
191.775177	917.034912	967.096313	919.310425	4.545444
192.157791	989.851563	903.381775	989.851563	-0.000000
192.540390	992.127075	917.034912	944.341125	63.636402
192.922943	905.657288	1001.229126	989.851563	88.095276
193.305481	1003.504700	1035.361938	953.443237	-157.143127
193.687958	1010.331238	1023.984375	994.402588	-116.666595
194.070419	948.892151	1019.433350	907.932800	-58.064438
194.452866	1064.943726	928.412476	957.994263	78.333321
194.835251	1030.810913	1012.606750	962.545288	375.000092
195.217621	1008.055725	976.198425	971.647400	114.285660
195.599960	1039.912964	1003.504700	912.483826	350.000580
195.982254	1080.872437	976.198425	951.167725	123.913002
196.364517	1033.086426	971.647400	973.922913	96.296310
196.746750	962.545288	1003.504700	971.647400	22.222271
197.128952	1014.882263	994.402588	964.820801	244.444611
197.511139	1067.219238	1001.229126	996.678101	106.896523
197.893280	992.127075	1010.331238	987.576050	-24.999916
198.275391	998.953613	935.239075	1017.157776	-28.571442
198.657471	1001.229126	1003.504700	1012.606750	499.989258
199.039520	1049.015137	967.096313	989.851563	72.222198
199.421539	948.892151	1037.637451	1010.331238	69.230804
199.803513	967.096313	973.922913	996.678101	433.331238
200.185471	1001.229126	948.892151	935.239075	126.086868
200.567383	1010.331238	1010.331238	937.514587	0.000000
200.949265	989.851563	989.851563	1046.739624	0.000000
201.331131	930.687988	1044.463989	1005.780212	66.000053
201.712967	946.616638	1037.637451	996.678101	55.000015
202.094742	976.198425	1030.810913	985.300537	16.666723
202.476517	980.749451	1026.259888	1008.055725	60.000027
202.858231	957.994263	1055.841675	953.443237	-4.651145
203.239944	969.371887	994.402588	987.576050	72.727341
203.621582	955.718750	935.239075	978.473938	-111.111076
204.003235	937.514587	969.371887	930.687988	-21.428680
204.384827	935.239075	1019.433350	1019.433350	100.000000
204.766388	937.514587	1017.157776	946.616638	11.428536
205.147934	985.300537	1039.912964	994.402588	16.666630
205.529449	1021.708862	953.443237	989.851563	46.666679
205.910904	976.198425	1044.463989	960.269775	-23.333361
206.292343	948.892151	1019.433350	937.514587	-16.128962
206.673767	930.687988	992.127075	914.759338	-25.925922
207.055115	998.953613	980.749451	978.473938	112.499962
207.436462	1010.331238	1012.606750	942.065613	-3000.010742
207.817780	1014.882263	1069.494751	967.096313	-87.500038
208.199051	967.096313	976.198425	976.198425	100.000000
208.580307	994.402588	983.024963	932.963501	539.999268
208.961517	928.412476	971.647400	983.024963	126.315681
209.342712	983.024963	987.576050	939.790100	-949.989929
209.723846	976.198425	989.851563	964.820801	-83.333405
210.104965	1096.801025	1069.494751	967.096313	474.999664
210.486069	955.718750	1074.045776	951.167725	-3.846142
210.867111	985.300537	1044.463989	923.861450	-103.846352
211.248123	962.545288	1046.739624	969.371887	8.108146
211.629120	962.545288	998.953613	910.208313	-143.750015
212.010071	994.402588	1044.463989	973.922913	-40.909115
212.390991	951.167725	1026.259888	962.545288	15.151465
212.771881	983.024963	923.861450	923.861450	100.000000
213.152756	962.545288	992.127075	967.096313	15.384552
213.533569	962.545288	944.341125	932.963501	162.500122
213.914368	930.687988	960.269775	919.310425	-38.461380
214.295135	989.851563	985.300537	926.136963	1400.005371
214.675858	989.851563	928.412476	1014.882263	-40.740677
215.056549	978.473938	992.127075	946.616638	-233.333191
215.437225	1019.433350	978.473938	957.994263	149.999924
215.817841	978.473938	1071.770264	935.239075	-46.341442
216.198441	1010.331238	985.300537	960.269775	200.000244
216.579025	928.412476	1028.535400	948.892151	20.454531
216.959549	1053.566162	1017.157776	932.963501	331.249664
217.340057	973.922913	1012.606750	907.932800	-170.588333
217.720535	1003.504700	1008.055725	921.585938	-1800.006714
218.100967	1003.504700	1001.229126	980.749451	999.978516
218.481369	994.402588	987.576050	957.994263	533.335144
218.861740	1003.504700	1067.219238	971.647400	-50.000050
219.242065	955.718750	978.473938	878.351013	-340.000427
219.622391	969.371887	1019.433350	1019.433350	100.000000
220.002670	994.402588	1012.606750	962.545288	-175.000076
220.382919	976.198425	962.545288	962.545288	100.000000
220.763123	932.963501	996.678101	953.443237	32.142925
221.143295	937.514587	1014.882263	989.851563	67.647079
221.523453	992.127075	1005.780212	967.096313	-183.333405
221.903549	957.994263	1003.504700	976.198425	39.999973
222.283630	1046.739624	1023.984375	996.678101	219.999893
222.663696	976.198425	1035.361938	985.300537	15.384671
223.043701	923.861450	978.473938	960.269775	66.666664
223.423676	978.473938	1033.086426	921.585938	-104.166656
223.803635	967.096313	1012.606750	901.106262	-144.999817
224.183548	928.412476	996.678101	1003.504700	110.000053
224.563431	962.545288	1014.882263	994.402588	60.869587
224.943283	946.616638	1008.055725	910.208313	-59.259224
225.323105	937.514587	1058.117188	955.718750	15.094337
225.702881	1008.055725	1033.086426	1012.606750	18.181774
226.082642	919.310425	1026.259888	928.412476	8.510610
226.462357	1017.157776	1035.361938	946.616638	-387.500031
226.842041	998.953613	967.096313	910.208313	278.571320
227.221695	926.136963	1019.433350	948.892151	24.390213
227.601318	937.514587	1021.708862	942.065613	5.405386
227.980911	989.851563	996.678101	903.381775	-1266.671143
228.360474	976.198425	1021.708862	1019.433350	95.000023
228.739990	1028.535400	1135.484863	946.616638	-76.595764
229.119476	971.647400	1124.107300	969.371887	-1.492532
229.498932	1005.780212	1130.933838	1003.504700	-1.818176
229.878372	996.678101	1187.821899	971.647400	-13.095220
230.257736	1008.055725	1212.852539	969.371887	-18.888887
230.637115	980.749451	1203.750488	994.402588	6.122455
231.016449	992.127075	1128.658325	992.127075	0.000000
231.395737	903.381775	1121.831787	1005.780212	46.874996
231.774994	937.514587	1014.882263	992.127075	70.588249
232.154221	964.820801	1146.862427	973.922913	5.000017
232.533417	937.514587	1146.862427	1014.882263	36.956520
232.912582	917.034912	1167.342163	1058.117188	56.363640
233.291702	928.412476	1115.005249	971.647400	23.170738
233.670792	996.678101	1119.556274	926.136963	-57.407379
234.049866	907.932800	1133.209351	989.851563	36.363644
234.428894	957.994263	1176.444214	964.820801	3.124990
234.807892	973.922913	1183.270874	955.718750	-8.695648
235.186874	985.300537	1133.209351	930.687988	-36.923119
235.565781	967.096313	1212.852539	985.300537	7.407431
235.944687	1028.535400	1185.546387	932.963501	-60.869560
236.323547	948.892151	1256.087524	923.861450	-8.148137
236.702377	926.136963	1201.474976	985.300537	21.487616
237.081177	980.749451	1174.168701	980.749451	0.000000
237.459946	980.749451	1190.097412	983.024963	1.086952
237.838669	942.065613	1165.066650	998.953613	25.510195
238.217361	928.412476	1256.087524	907.932800	-6.249995
238.596039	994.402588	1208.301514	960.269775	-15.957449
238.974670	942.065613	1208.301514	942.065613	0.000000
239.353271	957.994263	1224.230225	948.892151	-3.418814
239.731842	980.749451	1240.158813	939.790100	-15.789465
240.110367	919.310425	1158.240112	935.239075	6.666668
240.488876	928.412476	1237.883301	944.341125	5.147060
240.867340	964.820801	1253.812012	994.402588	10.236224
241.245789	1019.433350	1258.363037	976.198425	-18.095249
241.624176	969.371887	1228.781250	1003.504700	13.157895
242.002548	957.994263	1467.710938	978.473938	4.017855
242.380890	1023.984375	1495.017212	1019.433350	-0.966180
242.759186	1019.433350	1533.701050	978.473938	-7.964609
243.137451	932.963501	1592.864502	960.269775	4.137935
243.515686	971.647400	1658.854614	985.300537	1.986757
243.893890	964.820801	1658.854614	1058.117188	13.442629
244.272049	967.096313	1517.772339	987.576050	3.719017
244.650192	889.728638	1606.517700	976.198425	12.063492
245.028290	905.657288	1506.394775	971.647400	10.984850
245.406357	960.269775	1492.741699	948.892151	-2.136756
245.784393	955.718750	1447.231201	1028.535400	14.814813
246.162384	907.932800	1501.843750	1005.780212	16.475098
246.540359	948.892151	1592.864502	976.198425	4.240287
246.918289	955.718750	1615.619751	985.300537	4.482761
247.296204	989.851563	1756.702026	932.963501	-7.418404
247.674057	973.922913	2066.172852	989.851563	1.458334
248.051895	976.198425	2243.663574	980.749451	0.359065
248.429703	948.892151	2352.888428	985.300537	2.593197
248.807465	1010.331238	2336.959961	1058.117188	3.602059
249.185196	1019.433350	2095.754639	1037.637451	1.691326
249.562897	964.820801	1893.233276	978.473938	1.470590
249.940567	1001.229126	1840.896362	980.749451	-2.439023
250.318192	1021.708862	1779.457275	1071.770264	6.606599
250.695801	994.402588	1649.752563	1058.117188	9.722225
251.073349	980.749451	1579.211426	1023.984375	7.224339
251.450882	955.718750	1501.843750	1053.566162	17.916670
251.828400	1053.566162	1524.598877	1021.708862	-6.763288
252.205872	987.576050	1565.558350	935.239075	-9.055118
252.583313	926.136963	1636.099487	967.096313	5.769227
252.960693	980.749451	1722.569214	980.749451	0.000000
253.338074	955.718750	1913.713013	1001.229126	4.750590
253.715408	1019.433350	1845.447388	978.473938	-4.958682
254.092682	923.861450	1665.681274	989.851563	8.895706
254.469955	989.851563	1654.303589	1046.739624	8.561650
254.847198	937.514587	1574.660400	1053.566162	18.214289
255.224365	1017.157776	1508.670288	939.790100	-15.740734
255.601563	910.208313	1506.394775	953.443237	7.251913
255.978683	973.922913	1547.354126	992.127075	3.174603
256.355743	976.198425	1499.568237	1019.433350	8.260875
256.732819	930.687988	1570.109375	1021.708862	14.234881
257.109894	944.341125	1549.629639	976.198425	5.263159
257.486877	1005.780212	1576.935913	1023.984375	3.187250
257.863831	1028.535400	1683.885376	976.198425	-7.986111
258.240753	1008.055725	1672.507813	969.371887	-5.821915
258.617645	1017.157776	1692.987427	996.678101	-3.030301
258.994507	1003.504700	1799.937012	935.239075	-8.571428
259.371307	980.749451	1836.345337	989.851563	1.063833
259.748108	985.300537	2125.336426	948.892151	-3.193618
260.124878	998.953613	2314.204590	994.402588	-0.346020
260.501617	898.830688	2500.797363	1023.984375	7.812502
260.878296	919.310425	2803.441650	1083.147949	8.695654
261.254944	951.167725	2889.911377	942.065613	-0.469485
261.631561	989.851563	2864.880615	983.024963	-0.364080
262.008179	946.616638	2521.277100	1010.331238	4.046244
262.384735	960.269775	2168.571289	1062.668213	8.474577
262.761261	973.922913	2018.386963	1051.290649	7.407410
263.137695	926.136963	2027.489014	1003.504700	7.024796
263.514191	928.412476	1934.192627	998.953613	7.013574
263.890594	996.678101	1970.601074	1037.637451	4.205605
264.267029	944.341125	1909.161987	1014.882263	7.311320
264.643341	978.473938	1875.029175	996.678101	2.030456
265.019653	942.065613	1845.447388	1049.015137	11.838796
265.395935	992.127075	1831.794189	989.851563	-0.271002
265.772217	1017.157776	1863.651489	996.678101	-2.419353
266.148407	953.443237	1829.518677	985.300537	3.636365
266.524597	992.127075	1970.601074	1003.504700	1.162793
266.900726	926.136963	2029.764526	1101.352051	15.876287
267.276855	967.096313	2004.733887	1046.739624	7.675446
267.652924	967.096313	2241.387939	1030.810913	5.000001
268.028992	953.443237	2168.571289	942.065613	-0.936331
268.404999	955.718750	2118.509766	1060.392700	9.001957
268.781006	894.279663	2111.683350	1037.637451	11.775699
269.156921	980.749451	2125.336426	1062.668213	7.157059
269.532837	973.922913	2170.846924	935.239075	-3.231937
269.908661	953.443237	2086.652588	1010.331238	5.020079
270.284546	892.004150	2143.540527	971.647400	6.363638
270.660339	1023.984375	2148.091553	1026.259888	0.202428
271.036133	937.514587	2141.265137	1028.535400	7.561435
271.411835	944.341125	2364.266113	1014.882263	4.967948
271.787537	969.371887	2448.460449	1046.739624	5.230771
272.163239	967.096313	2616.848877	1019.433350	3.172417
272.538849	1035.361938	2780.686523	1140.035889	5.997392
272.914459	987.576050	2812.543701	1005.780212	0.997506
273.290070	980.749451	2632.777588	1017.157776	2.203856
273.665588	944.341125	2491.695313	1092.250000	9.558825
274.041046	996.678101	2537.205811	1112.729614	7.533231
274.416565	1010.331238	2441.633789	1037.637451	1.907788
274.791962	1005.780212	2389.296875	1110.454102	7.565785
275.167389	971.647400	2316.480225	1017.157776	3.384092
275.542755	983.024963	2402.949951	1023.984375	2.884618
275.918060	989.851563	2245.938965	962.545288	-2.173915
276.293365	1005.780212	2336.959961	996.678101	-0.683763
276.668640	976.198425	2475.766602	1037.637451	4.097115
277.043854	1023.984375	2489.419678	998.953613	-1.708077
277.419037	937.514587	2514.450439	1021.708862	5.339106
277.794189	964.820801	2439.358398	971.647400	0.462965
278.169312	971.647400	2491.695313	930.687988	-2.694613
278.544373	976.198425	2514.450439	1035.361938	3.846152
278.919464	930.687988	2509.899414	1069.494751	8.789625
279.294464	935.239075	2330.133301	1049.015137	8.156609
279.669464	985.300537	2459.837891	1058.117188	4.938271
280.044403	1012.606750	2380.194824	1099.076538	6.322794
280.419312	944.341125	2437.082764	1023.984375	5.335367
280.794189	1019.433350	2430.256104	1051.290649	2.258065
281.169037	1037.637451	2559.960938	1051.290649	0.896866
281.543854	998.953613	2553.134277	1012.606750	0.878478
281.918671	980.749451	2589.542725	1049.015137	4.243285
282.293365	987.576050	2869.431641	1049.015137	3.264814
282.668091	926.136963	2878.533936	1049.015137	6.293708
283.042786	978.473938	3003.687500	1042.188477	3.146065
283.417419	967.096313	3005.962891	1089.974487	6.026788
283.792053	980.749451	2889.911377	1074.045776	4.886769
284.166595	973.922913	2937.697266	1078.596802	5.330240
284.541138	960.269775	2785.237549	1092.250000	7.231921
284.915619	998.953613	2939.972900	1046.739624	2.461903
285.290100	1055.841675	2921.768799	1012.606750	-2.317075
285.664520	996.678101	2894.462402	1051.290649	2.877701
286.038940	930.687988	2935.421875	1067.219238	6.810442
286.413300	987.576050	3140.218750	1078.596802	4.228326
286.787628	896.555176	3165.249512	1160.515625	11.634906
287.161896	955.718750	3219.861816	1124.107300	7.437187
287.536194	1001.229126	3304.056152	1178.719727	7.707509
287.910400	987.576050	3137.943115	1089.974487	4.761905
288.284607	937.514587	3074.228516	1117.280762	8.413208
288.658752	955.718750	2935.421875	1037.637451	4.137928
289.032867	971.647400	2814.819336	1014.882263	2.345677
289.406921	1005.780212	2851.227539	1110.454102	5.672007
289.781006	912.483826	2853.503174	1067.219238	7.971864
290.154999	1008.055725	2878.533936	1076.321289	3.649632
290.529022	1003.504700	3169.800537	1115.005249	5.147060
290.902954	910.208313	3112.912354	1124.107300	9.710746
291.276825	1026.259888	3253.994629	1035.361938	0.408579
291.650757	985.300537	3331.362549	1117.280762	5.625607
292.024597	960.269775	3297.229736	1069.494751	4.673806
292.398407	962.545288	3265.372314	1085.423462	5.335970
292.772156	969.371887	3119.739014	1053.566162	3.915344
293.145905	978.473938	3115.187988	1096.801025	5.537806
293.519592	989.851563	2969.554688	1162.791138	8.735632
293.893280	1037.637451	3053.749023	1167.342163	6.433409
294.266907	917.034912	3110.636963	1023.984375	4.875518
294.640533	980.749451	3294.954102	1087.698975	4.621438
295.014069	978.473938	3249.443604	1167.342163	8.316633
295.387604	1001.229126	3547.536865	1135.484863	5.272565
295.761078	1019.433350	3588.496338	1064.943726	1.771478
296.134552	967.096313	3465.618164	1144.586914	7.103824
296.507996	967.096313	3547.536865	1089.974487	4.761907
296.881378	923.861450	3549.812500	1101.352051	6.759098
297.254730	939.790100	3729.578613	1080.872437	5.057098
297.628021	1028.535400	3988.988037	1185.546387	5.303614
298.001282	953.443237	4034.498291	1099.076538	4.726735
298.374573	1019.433350	4091.386475	1153.689087	4.370371
298.747803	1001.229126	3909.344727	1112.729614	3.834115
299.121002	998.953613	3747.782715	1053.566162	1.986757
299.494141	885.177612	3602.149414	1212.852539	12.060300
299.867188	1001.229126	3565.741211	1037.637451	1.419698
300.240265	1001.229126	3388.250488	1101.352051	4.194471
300.613312	969.371887	3367.770752	1115.005249	6.072107
300.986328	1026.259888	3345.015625	1160.515625	5.789990
301.359314	987.576050	3203.933350	1087.698975	4.517454
301.732239	951.167725	3140.218750	1087.698975	6.237006
302.105103	921.585938	3265.372314	1083.147949	6.893206
302.477997	953.443237	3188.004639	1101.352051	6.619143
302.850830	1003.504700	3367.770752	1167.342163	6.929739
303.223602	1008.055725	3135.667725	1076.321289	3.208553
303.596375	1051.290649	3208.484375	1062.668213	0.527424
303.969116	973.922913	3071.953125	1035.361938	2.928415
304.341766	987.576050	3076.504150	1055.841675	3.267974
304.714478	980.749451	3156.147461	1058.117188	3.556487
305.087067	944.341125	3162.973877	1133.209351	8.512820
305.459656	989.851563	3144.769775	1092.250000	4.751848
305.832214	1003.504700	3172.075928	1133.209351	5.981111
306.204681	971.647400	3040.095703	996.678101	1.210120
306.577148	907.932800	3056.024414	1023.984375	5.402543
306.949646	998.953613	3140.218750	1030.810913	1.487779
307.322021	921.585938	3167.524902	1010.331238	3.951367
307.694397	935.239075	3126.565674	1039.912964	4.776736
308.066742	1019.433350	3053.749023	1112.729614	4.586125
308.439026	980.749451	3324.535889	1089.974487	4.660196
308.811279	1001.229126	3217.586426	1053.566162	2.361399
309.183502	998.953613	3417.832275	1146.862427	6.114768
309.555695	946.616638	3481.546875	1155.964600	8.258530
309.927887	951.167725	3415.556641	1087.698975	5.540166
310.299988	1023.984375	3556.638916	1117.280762	3.683739
310.672058	942.065613	3499.750977	1037.637451	3.736654
311.044128	946.616638	3558.914551	1078.596802	5.052263
311.416168	914.759338	3654.486328	1130.933838	7.890366
311.788147	942.065613	3636.282227	1101.352051	5.912162
312.160065	967.096313	3615.802490	1103.627563	5.154640
312.531982	944.341125	3549.812500	1167.342163	8.558951
312.903870	992.127075	3433.760986	1028.535400	1.491146
313.275696	948.892151	3417.832275	1001.229126	2.119815
313.647491	1014.882263	3319.984863	1030.810913	0.691017
314.019318	1001.229126	3404.179199	1105.903076	4.356060
314.391022	1017.157776	3415.556641	1053.566162	1.518029
314.762726	1003.504700	3445.138428	1042.188477	1.584340
315.134369	989.851563	3563.465576	967.096313	-0.884175
315.505981	937.514587	3699.996826	1083.147949	5.271830
315.877594	976.198425	3759.160400	1030.810913	1.962387
316.249146	1049.015137	3593.047363	1046.739624	-0.089445
316.620636	928.412476	3467.893799	1026.259888	3.853047
316.992157	973.922913	3276.750000	1099.076538	5.434782
317.363586	896.555176	3290.403076	1083.147949	7.794680
317.735016	985.300537	3256.270264	1035.361938	2.204406
318.106354	960.269775	3304.056152	1126.382813	7.087379
318.477722	1026.259888	3347.291016	1121.831787	4.117648
318.849060	919.310425	3253.994629	1101.352051	7.797270
319.220306	910.208313	3244.892578	1030.810913	5.165692
319.591522	1014.882263	3442.863037	1049.015137	1.405813
319.962738	985.300537	3454.240479	1042.188477	2.304144
320.333923	944.341125	3304.056152	1051.290649	4.532307
320.705017	1042.188477	3310.882813	964.820801	-3.410229
321.076111	998.953613	3329.086914	1042.188477	1.855467
321.447144	978.473938	3283.576416	960.269775	-0.789733
321.818176	914.759338	3222.137451	1033.086426	5.128205
322.189178	967.096313	3201.657715	1030.810913	2.851325
