Jaz Data File
++++++++++++++++++++++++++++++++++++
Date: Wed Feb 07 06:33:40 2024
User: jaz
Dark Spectrum Present: Yes
Reference Spectrum Present: Yes
Processed Spectrum Present: Yes
Spectrometers: JAZA3692
Integration Time (usec): 40000 (JAZA3692)
Spectra Averaged: 1 (JAZA3692)
Boxcar Smoothing: 0 (JAZA3692)
Correct for Electrical Dark: No (JAZA3692)
Strobe/Lamp Enabled: Yes (JAZA3692)
Correct for Detector Non-linearity: No (JAZA3692)
Correct for Stray Light: No (JAZA3692)
Number of Pixels in Processed Spectrum: 2048
>>>>>Begin Processed Spectral Data<<<<<
W	D	R	S	P
190.244385	0.000000	0.000000	0.000000	0.000000
190.627136	0.000000	0.000000	0.000000	0.000000
191.009842	1424.476074	1381.241089	1351.659302	168.420944
191.392532	1344.832764	1360.761475	1276.567139	-428.569672
191.775177	1369.863525	1378.965576	1340.281738	-325.001343
192.157791	1410.822876	1438.129150	1353.934937	-208.332855
192.540390	1367.588013	1419.924927	1253.812012	-217.391495
192.922943	1408.547363	1406.271851	1415.373901	-300.000000
193.305481	1335.730713	1406.271851	1388.067749	74.193634
193.687958	1381.241089	1431.302612	1406.271851	50.000000
194.070419	1347.108276	1358.485962	1403.996338	499.996796
194.452866	1447.231201	1442.680176	1353.934937	2050.005371
194.835251	1369.863525	1392.618774	1344.832764	-109.999947
195.217621	1367.588013	1344.832764	1353.934937	59.999680
195.599960	1438.129150	1388.067749	1338.006226	200.000244
195.982254	1456.333252	1442.680176	1315.250977	1033.336914
196.364517	1490.466064	1365.312500	1376.690063	90.909119
196.746750	1449.506714	1429.027100	1394.894287	266.667267
197.128952	1390.343262	1353.934937	1306.148926	231.250229
197.511139	1444.955688	1456.333252	1369.863525	-660.002136
197.893280	1374.414551	1372.139038	1406.271851	-1400.005371
198.275391	1399.445313	1340.281738	1333.455200	111.538414
198.657471	1410.822876	1392.618774	1340.281738	387.501343
199.039520	1394.894287	1431.302612	1372.139038	-62.500126
199.421539	1403.996338	1419.924927	1351.659302	-328.572968
199.803513	1435.853638	1440.404663	1306.148926	-2850.010742
200.185471	1406.271851	1381.241089	1347.108276	236.363464
200.567383	1385.792114	1429.027100	1331.179688	-126.315361
200.949265	1456.333252	1431.302612	1312.975464	572.729248
201.331131	1392.618774	1449.506714	1390.343262	-3.999991
201.712967	1378.965576	1401.720825	1456.333252	339.999237
202.094742	1442.680176	1435.853638	1287.944824	2266.673828
202.476517	1401.720825	1458.608887	1306.148926	-167.999924
202.858231	1408.547363	1378.965576	1281.118164	430.769104
203.239944	1415.373901	1392.618774	1344.832764	310.001068
203.621582	1376.690063	1472.261963	1344.832764	-33.333332
204.003235	1331.179688	1367.588013	1351.659302	56.249813
204.384827	1328.904175	1444.955688	1306.148926	-19.607887
204.766388	1369.863525	1438.129150	1403.996338	50.000000
205.147934	1351.659302	1447.231201	1374.414551	23.809561
205.529449	1392.618774	1433.578125	1397.169800	11.111078
205.910904	1444.955688	1460.884399	1447.231201	14.285604
206.292343	1360.761475	1476.812988	1351.659302	-7.843218
206.673767	1429.027100	1413.098389	1308.424438	757.140137
207.055115	1456.333252	1390.343262	1360.761475	144.827682
207.436462	1403.996338	1431.302612	1333.455200	-258.333069
207.817780	1431.302612	1390.343262	1351.659302	194.444763
208.199051	1358.485962	1463.159912	1415.373901	54.347752
208.580307	1424.476074	1422.200562	1351.659302	3200.016113
208.961517	1388.067749	1454.057739	1281.118164	-162.069412
209.342712	1440.404663	1431.302612	1408.547363	350.001343
209.723846	1390.343262	1463.159912	1356.210449	-46.875011
210.104965	1403.996338	1388.067749	1328.904175	471.430115
210.486069	1426.751587	1447.231201	1331.179688	-466.668457
210.867111	1383.516602	1456.333252	1360.761475	-31.249895
211.248123	1385.792114	1390.343262	1363.036987	-499.986603
211.629120	1385.792114	1424.476074	1397.169800	29.411894
212.010071	1456.333252	1474.537476	1363.036987	-512.497925
212.390991	1406.271851	1378.965576	1326.628662	291.666260
212.771881	1349.383789	1397.169800	1353.934937	9.524016
213.152756	1401.720825	1438.129150	1299.322388	-281.250061
213.533569	1392.618774	1417.649414	1285.669312	-427.274200
213.914368	1331.179688	1429.027100	1358.485962	27.906998
214.295135	1383.516602	1410.822876	1365.312500	-66.666367
214.675858	1433.578125	1458.608887	1312.975464	-481.817780
215.056549	1417.649414	1415.373901	1378.965576	1700.005371
215.437225	1365.312500	1431.302612	1278.842651	-131.034546
215.817841	1458.608887	1413.098389	1317.526489	309.999664
216.198441	1360.761475	1392.618774	1403.996338	135.714142
216.579025	1356.210449	1378.965576	1422.200562	290.001068
216.959549	1360.761475	1408.547363	1292.495850	-142.857285
217.340057	1413.098389	1442.680176	1360.761475	-176.922760
217.720535	1378.965576	1360.761475	1388.067749	-50.000671
218.100967	1419.924927	1415.373901	1331.179688	1950.005371
218.481369	1340.281738	1435.853638	1365.312500	26.190504
218.861740	1401.720825	1458.608887	1383.516602	-32.000076
219.242065	1424.476074	1367.588013	1326.628662	171.999908
219.622391	1338.006226	1510.945801	1367.588013	17.105274
220.002670	1358.485962	1447.231201	1326.628662	-35.897476
220.382919	1338.006226	1365.312500	1328.904175	-33.333183
220.763123	1381.241089	1479.088501	1372.139038	-9.302291
221.143295	1378.965576	1358.485962	1319.802124	288.889496
221.523453	1363.036987	1399.445313	1319.802124	-118.749939
221.903549	1406.271851	1485.915039	1372.139038	-42.857166
222.283630	1312.975464	1469.986450	1403.996338	57.971024
222.663696	1401.720825	1435.853638	1351.659302	-146.666855
223.043701	1376.690063	1385.792114	1394.894287	200.001343
223.423676	1353.934937	1488.190552	1303.873413	-37.288216
223.803635	1381.241089	1472.261963	1342.557251	-42.499962
224.183548	1394.894287	1442.680176	1272.016113	-257.143219
224.563431	1438.129150	1431.302612	1349.383789	1300.005371
224.943283	1419.924927	1451.782227	1360.761475	-185.713959
225.323105	1388.067749	1372.139038	1315.250977	457.141663
225.702881	1442.680176	1449.506714	1287.944824	-2266.673828
226.082642	1326.628662	1465.435425	1358.485962	22.950827
226.462357	1374.414551	1458.608887	1299.322388	-89.189095
226.842041	1303.873413	1451.782227	1331.179688	18.461559
227.221695	1326.628662	1467.710938	1385.792114	41.935425
227.601318	1388.067749	1417.649414	1326.628662	-207.693130
227.980911	1419.924927	1488.190552	1315.250977	-153.333328
228.360474	1397.169800	1510.945801	1328.904175	-60.000023
228.739990	1374.414551	1508.670288	1422.200562	35.593273
229.119476	1372.139038	1504.119263	1390.343262	13.793145
229.498932	1403.996338	1604.242188	1360.761475	-21.590891
229.878372	1460.884399	1599.691162	1369.863525	-65.573807
230.257736	1358.485962	1702.089600	1326.628662	-9.271525
230.637115	1465.435425	1679.334351	1376.690063	-41.489391
231.016449	1456.333252	1658.854614	1372.139038	-41.573006
231.395737	1363.036987	1599.691162	1347.108276	-6.730796
231.774994	1419.924927	1561.007324	1358.485962	-43.548286
232.154221	1449.506714	1608.793213	1376.690063	-45.714264
232.533417	1406.271851	1583.762451	1353.934937	-29.487146
232.912582	1401.720825	1567.833862	1340.281738	-36.986313
233.291702	1338.006226	1581.486938	1422.200562	34.579468
233.670792	1374.414551	1611.068726	1365.312500	-3.846140
234.049866	1419.924927	1615.619751	1319.802124	-51.162724
234.428894	1413.098389	1604.242188	1274.291626	-72.619026
234.807892	1351.659302	1495.017212	1347.108276	-3.174590
235.186874	1285.669312	1524.598877	1353.934937	28.571444
235.565781	1460.884399	1601.966675	1285.669312	-124.193550
235.944687	1383.516602	1601.966675	1392.618774	4.166706
236.323547	1397.169800	1622.446289	1331.179688	-29.292942
236.702377	1383.516602	1665.681274	1338.006226	-16.129013
237.081177	1381.241089	1581.486938	1356.210449	-12.499954
237.459946	1372.139038	1706.640625	1397.169800	7.483002
237.838669	1422.200562	1615.619751	1426.751587	2.352934
238.217361	1381.241089	1608.793213	1328.904175	-22.999968
238.596039	1363.036987	1670.232300	1422.200562	19.259270
238.974670	1385.792114	1622.446289	1322.077637	-26.923031
239.353271	1344.832764	1674.783325	1394.894287	15.172432
239.731842	1347.108276	1611.068726	1419.924927	27.586197
240.110367	1383.516602	1704.365112	1372.139038	-3.546086
240.488876	1356.210449	1722.569214	1324.353149	-8.695657
240.867340	1458.608887	1806.763550	1331.179688	-36.601318
241.245789	1401.720825	1818.141113	1374.414551	-6.557383
241.624176	1456.333252	1804.488037	1297.046875	-45.751598
242.002548	1394.894287	1904.610962	1410.822876	3.124989
242.380890	1415.373901	1902.335449	1408.547363	-1.401864
242.759186	1356.210449	1943.294800	1344.832764	-1.937998
243.137451	1356.210449	2029.764526	1367.588013	1.689183
243.515686	1331.179688	2123.060791	1472.261963	17.816093
243.893890	1310.699951	2204.979736	1385.792114	8.396943
244.272049	1495.017212	2209.530762	1376.690063	-16.560518
244.650192	1447.231201	2054.795166	1410.822876	-5.992509
245.028290	1426.751587	2029.764526	1365.312500	-10.188684
245.406357	1403.996338	1925.090576	1369.863525	-6.550219
245.784393	1394.894287	1904.610962	1356.210449	-7.589283
246.162384	1388.067749	1925.090576	1401.720825	2.542364
246.540359	1385.792114	2029.764526	1390.343262	0.706730
246.918289	1403.996338	2134.438477	1394.894287	-1.246101
247.296204	1378.965576	2218.632813	1403.996338	2.981034
247.674057	1394.894287	2473.491211	1385.792114	-0.843890
248.051895	1383.516602	2769.308838	1515.496826	9.523810
248.429703	1376.690063	2805.717041	1533.701050	10.987266
248.807465	1315.250977	2810.268311	1381.241089	4.414003
249.185196	1392.618774	2582.716064	1385.792114	-0.573622
249.562897	1340.281738	2416.603027	1458.608887	10.993664
249.940567	1367.588013	2341.510986	1406.271851	3.971961
250.318192	1419.924927	2214.081787	1431.302612	1.432675
250.695801	1399.445313	2157.193604	1472.261963	9.609610
251.073349	1449.506714	2066.172852	1433.578125	-2.583017
251.450882	1392.618774	1972.876587	1363.036987	-5.098042
251.828400	1406.271851	2020.662476	1367.588013	-6.296294
252.205872	1358.485962	2107.132324	1454.057739	12.765944
252.583313	1378.965576	2118.509766	1417.649414	5.230768
252.960693	1381.241089	2164.020264	1426.751587	5.813964
253.338074	1374.414551	2234.561523	1460.884399	10.052916
253.715408	1415.373901	2216.357178	1431.302612	1.988645
254.092682	1360.761475	2091.203613	1408.547363	6.542050
254.469955	1390.343262	2093.479248	1401.720825	1.618117
254.847198	1369.863525	2000.182739	1431.302612	9.747297
255.224365	1422.200562	1991.080688	1451.782227	5.199982
255.601563	1408.547363	1950.121338	1392.618774	-2.941166
255.978683	1413.098389	2047.968750	1399.445313	-2.150530
256.355743	1424.476074	1961.498901	1367.588013	-10.593229
256.732819	1390.343262	2043.417725	1403.996338	2.090585
257.109894	1349.383789	2043.417725	1392.618774	6.229520
257.486877	1415.373901	2004.733887	1451.782227	6.177604
257.863831	1426.751587	2009.284912	1408.547363	-3.125010
258.240753	1422.200562	2150.367188	1440.404663	2.499991
258.617645	1374.414551	2273.245361	1438.129150	7.088609
258.994507	1444.955688	2316.480225	1367.588013	-8.877280
259.371307	1349.383789	2423.429688	1481.364014	12.288136
259.748108	1372.139038	2491.695313	1460.884399	7.926834
260.124878	1394.894287	2764.757813	1533.701050	10.132890
260.501617	1347.108276	3053.749023	1570.109375	13.066669
260.878296	1390.343262	3258.545898	1547.354126	8.404381
261.254944	1394.894287	3358.668701	1501.843750	5.446117
261.631561	1415.373901	3358.668701	1540.527588	6.440283
262.008179	1372.139038	2833.023438	1506.394775	9.190032
262.384735	1388.067749	2760.206787	1444.955688	4.145931
262.761261	1422.200562	2512.175049	1410.822876	-1.043849
263.137695	1406.271851	2389.296875	1476.812988	7.175925
263.514191	1369.863525	2512.175049	1365.312500	-0.398405
263.890594	1390.343262	2446.184814	1419.924927	2.801714
264.267029	1397.169800	2352.888428	1413.098389	1.666661
264.643341	1306.148926	2468.940186	1485.915039	15.459878
265.019653	1331.179688	2371.092773	1476.812988	14.004373
265.395935	1397.169800	2255.041016	1388.067749	-1.061004
265.772217	1392.618774	2248.214600	1417.649414	2.925521
266.148407	1410.822876	2357.439453	1454.057739	4.567305
266.524597	1378.965576	2423.429688	1435.853638	5.446627
266.900726	1347.108276	2375.643799	1406.271851	5.752215
267.276855	1326.628662	2600.920166	1476.812988	11.785712
267.652924	1340.281738	2646.430664	1438.129150	7.491291
268.028992	1376.690063	2755.655762	1469.986450	6.765678
268.404999	1403.996338	2691.941162	1431.302612	2.120143
268.781006	1417.649414	2673.737061	1488.190552	5.615941
269.156921	1381.241089	2594.093750	1449.506714	5.628518
269.532837	1383.516602	2657.808350	1465.435425	6.428577
269.908661	1338.006226	2671.461426	1483.639526	10.921499
270.284546	1290.220337	2589.542725	1510.945801	16.987736
270.660339	1410.822876	2534.930176	1449.506714	3.441294
271.036133	1303.873413	2685.114502	1517.772339	15.485995
271.411835	1347.108276	2833.023438	1501.843750	10.413480
271.787537	1351.659302	2939.972900	1479.088501	8.022924
272.163239	1444.955688	3160.698486	1451.782227	0.397877
272.538849	1401.720825	3340.464600	1533.701050	6.807512
272.914459	1340.281738	3217.586426	1469.986450	6.909092
273.290070	1344.832764	3206.208740	1522.323364	9.535451
273.665588	1338.006226	3024.167236	1485.915039	8.771927
274.041046	1390.343262	3005.962891	1570.109375	11.126760
274.416565	1392.618774	3049.197754	1476.812988	5.082415
274.791962	1419.924927	3021.891602	1454.057739	2.130682
275.167389	1351.659302	2812.543701	1454.057739	7.009346
275.542755	1426.751587	2789.788574	1447.231201	1.502499
275.918060	1467.710938	2835.298828	1417.649414	-3.660571
276.293365	1472.261963	2862.605225	1485.915039	0.981993
276.668640	1419.924927	2899.013428	1456.333252	2.461538
277.043854	1326.628662	2978.656738	1479.088501	9.228647
277.419037	1365.312500	3010.513916	1447.231201	4.979250
277.794189	1306.148926	3030.993652	1447.231201	8.179419
278.169312	1417.649414	3012.789551	1520.047852	6.419401
278.544373	1408.547363	3040.095703	1456.333252	2.928868
278.919464	1353.934937	2967.279053	1463.159912	6.770098
279.294464	1344.832764	2942.248291	1520.047852	10.968660
279.669464	1360.761475	2951.350586	1476.812988	7.296134
280.044403	1340.281738	2942.248291	1538.252075	12.357957
280.419312	1312.975464	3003.687500	1492.741699	10.632576
280.794189	1435.853638	3099.259277	1469.986450	2.051984
281.169037	1344.832764	3028.718262	1433.578125	5.270273
281.543854	1438.129150	3203.933350	1472.261963	1.932990
281.918671	1413.098389	3176.626953	1538.252075	7.096777
282.293365	1417.649414	3338.188965	1551.905151	6.990522
282.668091	1376.690063	3511.128662	1501.843750	5.863542
283.042786	1399.445313	3572.567627	1586.037964	8.586385
283.417419	1301.597900	3508.853027	1506.394775	9.278351
283.792053	1381.241089	3545.261475	1542.803101	7.465827
284.166595	1394.894287	3297.229736	1449.506714	2.870810
284.541138	1360.761475	3399.628174	1535.976563	8.593749
284.915619	1431.302612	3244.892578	1549.629639	6.524464
285.290100	1335.730713	3456.516113	1458.608887	5.793994
285.664520	1431.302612	3490.648926	1595.140137	7.955803
286.038940	1408.547363	3540.710449	1524.598877	5.442901
286.413300	1356.210449	3765.986816	1545.078613	7.837581
286.787628	1394.894287	3884.313965	1581.486938	7.495428
287.161896	1333.455200	3868.385254	1647.477051	12.387791
287.536194	1344.832764	3836.528076	1706.640625	14.520550
287.910400	1308.424438	3754.609375	1690.711914	15.627905
288.284607	1372.139038	3606.700439	1690.711914	14.256617
288.658752	1385.792114	3497.475586	1597.415649	10.021555
289.032867	1378.965576	3376.872803	1677.058838	14.920276
289.406921	1342.557251	3486.097900	1649.752563	14.331211
289.781006	1415.373901	3481.546875	1736.222412	15.528639
290.154999	1454.057739	3549.812500	1745.324463	13.897939
290.529022	1422.200562	3620.353516	1688.436401	12.111798
290.902954	1438.129150	3756.884766	1722.569214	12.266927
291.276825	1317.526489	3884.313965	1818.141113	19.503548
291.650757	1363.036987	3973.059326	1720.293701	13.687879
292.024597	1403.996338	3913.895752	1838.620850	17.316412
292.398407	1397.169800	3831.977051	1804.488037	16.728973
292.772156	1399.445313	3802.395264	1661.130127	10.890148
293.145905	1388.067749	3561.189941	1647.477051	11.937171
293.519592	1349.383789	3577.118652	1795.385864	20.020430
293.893280	1406.271851	3611.251465	1704.365112	13.519094
294.266907	1397.169800	3763.711426	1806.763550	17.307693
294.640533	1410.822876	3759.160400	1840.896362	18.313957
295.014069	1344.832764	3957.130615	1774.906250	16.463417
295.387604	1454.057739	4148.274414	1847.722900	14.611488
295.761078	1392.618774	4173.305176	1831.794189	15.793777
296.134552	1467.710938	4098.212891	1904.610962	16.608997
296.507996	1333.455200	4123.243652	1975.152100	23.001633
296.881378	1408.547363	4114.141602	1870.478149	17.073174
297.254730	1403.996338	4398.581543	1938.743774	17.857145
297.628021	1403.996338	4603.378418	1941.019287	16.785208
298.001282	1367.588013	4808.175293	1972.876587	17.592594
298.374573	1390.343262	4683.021973	1945.570313	16.862473
298.747803	1458.608887	4566.970215	1988.805176	17.057100
299.121002	1383.516602	4371.275391	1950.121338	18.964207
299.494141	1376.690063	4202.886719	1881.855713	17.874397
299.867188	1385.792114	4150.549805	1797.661377	14.897120
300.240265	1417.649414	4014.018799	1809.039063	15.074498
300.613312	1331.179688	3847.905762	1863.651489	21.157320
300.986328	1322.077637	3847.905762	1890.957764	22.522520
301.359314	1372.139038	3841.079102	1829.518677	18.525345
301.732239	1422.200562	3804.670898	1854.549438	18.147085
302.105103	1378.965576	3895.691650	1888.682251	20.253164
302.477997	1365.312500	3879.762939	1920.539551	22.081448
302.850830	1438.129150	3998.090088	1854.549438	16.266666
303.223602	1422.200562	3809.221924	1802.212524	15.919922
303.596375	1319.802124	3804.670898	1831.794189	20.604391
303.969116	1438.129150	3643.108887	1827.243164	17.647057
304.341766	1417.649414	3606.700439	1784.008301	16.735968
304.714478	1383.516602	3722.751953	1772.630737	16.634245
305.087067	1378.965576	3645.384277	1845.447388	20.582331
305.459656	1383.516602	3752.333740	1838.620850	19.212299
305.832214	1347.108276	3581.669678	1811.314575	20.773932
306.204681	1335.730713	3604.425049	1754.426514	18.455364
306.577148	1358.485962	3663.588379	1845.447388	21.125370
306.949646	1335.730713	3711.374512	1836.345337	21.072798
307.322021	1419.924927	3709.098877	1770.355225	15.308156
307.694397	1424.476074	3597.598389	1790.834839	16.858635
308.066742	1365.312500	3750.058350	1770.355225	16.984734
308.439026	1356.210449	3775.089111	1765.804199	16.933208
308.811279	1374.414551	3841.079102	1849.998413	19.280443
309.183502	1356.210449	4041.324951	1868.202637	19.067797
309.555695	1460.884399	3975.334961	1831.794189	14.751126
309.927887	1335.730713	4014.018799	1870.478149	19.966017
310.299988	1381.241089	4125.519043	1943.294800	20.480934
310.672058	1440.404663	4164.203125	1868.202637	15.705935
311.044128	1308.424438	4136.896973	1859.100464	19.469025
311.416168	1399.445313	4161.927734	1856.824951	16.556835
311.788147	1392.618774	4209.713379	1900.059814	18.012920
312.160065	1410.822876	4166.478516	1979.703125	20.644096
312.531982	1312.975464	4093.661865	1911.437500	21.522097
312.903870	1338.006226	4011.743164	1806.763550	17.531918
313.275696	1431.302612	3825.150391	1786.283813	14.828897
313.647491	1438.129150	3875.211914	1884.131226	18.300653
314.019318	1419.924927	3984.437012	1877.304688	17.834961
314.391022	1388.067749	3850.181152	1822.692139	17.652494
314.762726	1342.557251	4050.427002	1774.906250	15.966389
315.134369	1347.108276	4061.804688	1845.447388	18.357084
315.505981	1308.424438	4105.039551	1847.722900	19.283970
315.877594	1415.373901	4148.274414	1852.273926	15.986679
316.249146	1351.659302	4136.896973	1865.927002	18.464050
316.620636	1435.853638	3959.406250	1840.896362	16.050495
316.992157	1340.281738	3886.589600	1752.151001	16.175156
317.363586	1292.495850	3756.884766	1829.518677	21.791319
317.735016	1399.445313	3786.466553	1752.151001	14.775976
318.106354	1378.965576	3704.547852	1781.732788	17.318983
