Jaz Data File
++++++++++++++++++++++++++++++++++++
Date: Wed Feb 07 06:34:41 2024
User: jaz
Dark Spectrum Present: Yes
Reference Spectrum Present: Yes
Processed Spectrum Present: Yes
Spectrometers: JAZA3692
Integration Time (usec): 40000 (JAZA3692)
Spectra Averaged: 1 (JAZA3692)
Boxcar Smoothing: 0 (JAZA3692)
Correct for Electrical Dark: No (JAZA3692)
Strobe/Lamp Enabled: Yes (JAZA3692)
Correct for Detector Non-linearity: No (JAZA3692)
Correct for Stray Light: No (JAZA3692)
Number of Pixels in Processed Spectrum: 2048
>>>>>Begin Processed Spectral Data<<<<<
W	D	R	S	P
190.244385	0.000000	0.000000	0.000000	0.000000
190.627136	0.000000	0.000000	0.000000	0.000000
191.009842	1424.476074	1381.241089	1203.750488	510.525421
191.392532	1344.832764	1360.761475	1301.597900	-271.427246
191.775177	1369.863525	1378.965576	1331.179688	-425.001343
192.157791	1410.822876	1438.129150	1324.353149	-316.666138
192.540390	1367.588013	1419.924927	1374.414551	13.043447
192.922943	1408.547363	1406.271851	1269.740601	6100.021484
193.305481	1335.730713	1406.271851	1344.832764	12.903181
193.687958	1381.241089	1431.302612	1347.108276	-68.181732
194.070419	1347.108276	1358.485962	1385.792114	339.997437
194.452866	1447.231201	1442.680176	1303.873413	3150.010742
194.835251	1369.863525	1392.618774	1328.904175	-179.999573
195.217621	1367.588013	1344.832764	1358.485962	39.999786
195.599960	1438.129150	1388.067749	1360.761475	154.545563
195.982254	1456.333252	1442.680176	1335.730713	883.335999
196.364517	1490.466064	1365.312500	1349.383789	112.727333
196.746750	1449.506714	1429.027100	1365.312500	411.112305
197.128952	1390.343262	1353.934937	1360.761475	81.250061
197.511139	1444.955688	1456.333252	1392.618774	-460.001068
197.893280	1374.414551	1372.139038	1353.934937	900.000000
198.275391	1399.445313	1340.281738	1360.761475	65.384552
198.657471	1410.822876	1392.618774	1408.547363	12.500000
199.039520	1394.894287	1431.302612	1342.557251	-143.750183
199.421539	1403.996338	1419.924927	1322.077637	-514.287231
199.803513	1435.853638	1440.404663	1331.179688	-2300.008057
200.185471	1406.271851	1381.241089	1372.139038	136.363464
200.567383	1385.792114	1429.027100	1326.628662	-136.841614
200.949265	1456.333252	1431.302612	1369.863525	345.455536
201.331131	1392.618774	1449.506714	1324.353149	-120.000175
201.712967	1378.965576	1401.720825	1378.965576	0.000000
202.094742	1442.680176	1435.853638	1351.659302	1333.338745
202.476517	1401.720825	1458.608887	1283.393677	-207.999969
202.858231	1408.547363	1378.965576	1319.802124	299.999573
203.239944	1415.373901	1392.618774	1308.424438	470.001617
203.621582	1376.690063	1472.261963	1338.006226	-40.476162
204.003235	1331.179688	1367.588013	1394.894287	175.000076
204.384827	1328.904175	1444.955688	1344.832764	13.725447
204.766388	1369.863525	1438.129150	1322.077637	-69.999931
205.147934	1351.659302	1447.231201	1331.179688	-21.428490
205.529449	1392.618774	1433.578125	1363.036987	-72.222305
205.910904	1444.955688	1460.884399	1358.485962	-542.854492
206.292343	1360.761475	1476.812988	1363.036987	1.960778
206.673767	1429.027100	1413.098389	1274.291626	971.424988
207.055115	1456.333252	1390.343262	1319.802124	206.896729
207.436462	1403.996338	1431.302612	1342.557251	-224.999893
207.817780	1431.302612	1390.343262	1353.934937	188.888916
208.199051	1358.485962	1463.159912	1315.250977	-41.304436
208.580307	1424.476074	1422.200562	1299.322388	5500.021484
208.961517	1388.067749	1454.057739	1317.526489	-106.896912
209.342712	1440.404663	1431.302612	1351.659302	975.004028
209.723846	1390.343262	1463.159912	1317.526489	-100.000168
210.104965	1403.996338	1388.067749	1281.118164	771.431641
210.486069	1426.751587	1447.231201	1308.424438	-577.780151
210.867111	1383.516602	1456.333252	1374.414551	-12.499958
211.248123	1385.792114	1390.343262	1397.169800	249.995972
211.629120	1385.792114	1424.476074	1315.250977	-182.352417
212.010071	1456.333252	1474.537476	1310.699951	-799.997314
212.390991	1406.271851	1378.965576	1301.597900	383.332947
212.771881	1349.383789	1397.169800	1342.557251	-14.285642
213.152756	1401.720825	1438.129150	1301.597900	-275.000092
213.533569	1392.618774	1417.649414	1308.424438	-336.365112
213.914368	1331.179688	1429.027100	1306.148926	-25.581425
214.295135	1383.516602	1410.822876	1408.547363	91.666702
214.675858	1433.578125	1458.608887	1347.108276	-345.454315
215.056549	1417.649414	1415.373901	1267.465088	6600.021484
215.437225	1365.312500	1431.302612	1335.730713	-44.827606
215.817841	1458.608887	1413.098389	1326.628662	289.999512
216.198441	1360.761475	1392.618774	1285.669312	-235.714142
216.579025	1356.210449	1378.965576	1333.455200	-100.000534
216.959549	1360.761475	1408.547363	1312.975464	-100.000252
217.340057	1413.098389	1442.680176	1317.526489	-323.076813
217.720535	1378.965576	1360.761475	1344.832764	187.500671
218.100967	1419.924927	1415.373901	1283.393677	3000.010742
218.481369	1340.281738	1435.853638	1338.006226	-2.380943
218.861740	1401.720825	1458.608887	1322.077637	-139.999832
219.242065	1424.476074	1367.588013	1315.250977	192.000031
219.622391	1338.006226	1510.945801	1344.832764	3.947355
220.002670	1358.485962	1447.231201	1349.383789	-10.256519
220.382919	1338.006226	1365.312500	1319.802124	-66.666367
220.763123	1381.241089	1479.088501	1319.802124	-62.790588
221.143295	1378.965576	1358.485962	1317.526489	300.001190
221.523453	1363.036987	1399.445313	1324.353149	-106.249977
221.903549	1406.271851	1485.915039	1338.006226	-85.714333
222.283630	1312.975464	1469.986450	1294.771362	-11.594158
222.663696	1401.720825	1435.853638	1356.210449	-133.333221
223.043701	1376.690063	1385.792114	1328.904175	-525.001343
223.423676	1353.934937	1488.190552	1388.067749	25.423750
223.803635	1381.241089	1472.261963	1306.148926	-82.499939
224.183548	1394.894287	1442.680176	1383.516602	-23.809719
224.563431	1438.129150	1431.302612	1322.077637	1700.005371
224.943283	1419.924927	1451.782227	1322.077637	-307.142456
225.323105	1388.067749	1372.139038	1278.842651	685.712097
225.702881	1442.680176	1449.506714	1278.842651	-2400.009033
226.082642	1326.628662	1465.435425	1410.822876	60.655701
226.462357	1374.414551	1458.608887	1408.547363	40.540508
226.842041	1303.873413	1451.782227	1308.424438	3.076913
227.221695	1326.628662	1467.710938	1351.659302	17.741875
227.601318	1388.067749	1417.649414	1267.465088	-407.693970
227.980911	1419.924927	1488.190552	1299.322388	-176.666565
228.360474	1397.169800	1510.945801	1344.832764	-46.000065
228.739990	1374.414551	1508.670288	1342.557251	-23.728819
229.119476	1372.139038	1504.119263	1312.975464	-44.827606
229.498932	1403.996338	1604.242188	1306.148926	-48.863640
229.878372	1460.884399	1599.691162	1360.761475	-72.131157
230.257736	1358.485962	1702.089600	1306.148926	-15.231805
230.637115	1465.435425	1679.334351	1351.659302	-53.191536
231.016449	1456.333252	1658.854614	1319.802124	-67.415665
231.395737	1363.036987	1599.691162	1322.077637	-17.307682
231.774994	1419.924927	1561.007324	1388.067749	-22.580547
232.154221	1449.506714	1608.793213	1287.944824	-101.428490
232.533417	1406.271851	1583.762451	1372.139038	-19.230772
232.912582	1401.720825	1567.833862	1340.281738	-36.986313
233.291702	1338.006226	1581.486938	1338.006226	0.000000
233.670792	1374.414551	1611.068726	1317.526489	-24.038479
234.049866	1419.924927	1615.619751	1315.250977	-53.488358
234.428894	1413.098389	1604.242188	1331.179688	-42.857105
234.807892	1351.659302	1495.017212	1342.557251	-6.349179
235.186874	1285.669312	1524.598877	1319.802124	14.285722
235.565781	1460.884399	1601.966675	1322.077637	-98.387100
235.944687	1383.516602	1601.966675	1328.904175	-24.999958
236.323547	1397.169800	1622.446289	1424.476074	12.121227
236.702377	1383.516602	1665.681274	1365.312500	-6.451588
237.081177	1381.241089	1581.486938	1299.322388	-40.909061
237.459946	1372.139038	1706.640625	1283.393677	-26.530624
237.838669	1422.200562	1615.619751	1299.322388	-63.529465
238.217361	1381.241089	1608.793213	1333.455200	-20.999975
238.596039	1363.036987	1670.232300	1322.077637	-13.333325
238.974670	1385.792114	1622.446289	1301.597900	-35.576897
239.353271	1344.832764	1674.783325	1308.424438	-11.034479
239.731842	1347.108276	1611.068726	1308.424438	-14.655165
240.110367	1383.516602	1704.365112	1392.618774	2.836907
240.488876	1356.210449	1722.569214	1326.628662	-8.074540
240.867340	1458.608887	1806.763550	1406.271851	-15.032697
241.245789	1401.720825	1818.141113	1406.271851	1.092892
241.624176	1456.333252	1804.488037	1353.934937	-29.411722
242.002548	1394.894287	1904.610962	1347.108276	-9.375014
242.380890	1415.373901	1902.335449	1326.628662	-18.224281
242.759186	1356.210449	1943.294800	1406.271851	8.527122
243.137451	1356.210449	2029.764526	1410.822876	8.108098
243.515686	1331.179688	2123.060791	1429.027100	12.356326
243.893890	1310.699951	2204.979736	1308.424438	-0.254452
244.272049	1495.017212	2209.530762	1365.312500	-18.152870
244.650192	1447.231201	2054.795166	1390.343262	-9.363284
245.028290	1426.751587	2029.764526	1356.210449	-11.698113
245.406357	1403.996338	1925.090576	1365.312500	-7.423578
245.784393	1394.894287	1904.610962	1376.690063	-3.571440
246.162384	1388.067749	1925.090576	1378.965576	-1.694932
246.540359	1385.792114	2029.764526	1317.526489	-10.600706
246.918289	1403.996338	2134.438477	1365.312500	-5.295949
247.296204	1378.965576	2218.632813	1415.373901	4.336042
247.674057	1394.894287	2473.491211	1388.067749	-0.632909
248.051895	1383.516602	2769.308838	1440.404663	4.105093
248.429703	1376.690063	2805.717041	1469.986450	6.528665
248.807465	1315.250977	2810.268311	1449.506714	8.980213
249.185196	1392.618774	2582.716064	1367.588013	-2.103253
249.562897	1340.281738	2416.603027	1417.649414	7.188158
249.940567	1367.588013	2341.510986	1408.547363	4.205605
250.318192	1419.924927	2214.081787	1417.649414	-0.286532
250.695801	1399.445313	2157.193604	1397.169800	-0.300299
251.073349	1449.506714	2066.172852	1417.649414	-5.166053
251.450882	1392.618774	1972.876587	1365.312500	-4.705886
251.828400	1406.271851	2020.662476	1399.445313	-1.111107
252.205872	1358.485962	2107.132324	1353.934937	-0.607901
252.583313	1378.965576	2118.509766	1422.200562	5.846167
252.960693	1381.241089	2164.020264	1344.832764	-4.651162
253.338074	1374.414551	2234.561523	1376.690063	0.264549
253.715408	1415.373901	2216.357178	1349.383789	-8.238638
254.092682	1360.761475	2091.203613	1342.557251	-2.492220
254.469955	1390.343262	2093.479248	1426.751587	5.177992
254.847198	1369.863525	2000.182739	1374.414551	0.722019
255.224365	1422.200562	1991.080688	1351.659302	-12.400022
255.601563	1408.547363	1950.121338	1426.751587	3.361355
255.978683	1413.098389	2047.968750	1417.649414	0.716843
256.355743	1424.476074	1961.498901	1349.383789	-13.983071
256.732819	1390.343262	2043.417725	1342.557251	-7.317085
257.109894	1349.383789	2043.417725	1399.445313	7.213123
257.486877	1415.373901	2004.733887	1392.618774	-3.860990
257.863831	1426.751587	2009.284912	1417.649414	-1.562515
258.240753	1422.200562	2150.367188	1390.343262	-4.375001
258.617645	1374.414551	2273.245361	1378.965576	0.506327
258.994507	1444.955688	2316.480225	1347.108276	-11.227155
259.371307	1349.383789	2423.429688	1451.782227	9.533897
259.748108	1372.139038	2491.695313	1456.333252	7.520320
260.124878	1394.894287	2764.757813	1458.608887	4.651164
260.501617	1347.108276	3053.749023	1485.915039	8.133332
260.878296	1390.343262	3258.545898	1492.741699	5.481121
261.254944	1394.894287	3358.668701	1563.282837	8.574740
261.631561	1415.373901	3358.668701	1454.057739	1.990631
262.008179	1372.139038	2833.023438	1469.986450	6.697820
262.384735	1388.067749	2760.206787	1483.639526	6.965167
262.761261	1422.200562	2512.175049	1454.057739	2.922745
263.137695	1406.271851	2389.296875	1479.088501	7.407405
263.514191	1369.863525	2512.175049	1433.578125	5.577690
263.890594	1390.343262	2446.184814	1385.792114	-0.431045
264.267029	1397.169800	2352.888428	1388.067749	-0.952378
264.643341	1306.148926	2468.940186	1444.955688	11.937376
265.019653	1331.179688	2371.092773	1381.241089	4.813999
265.395935	1397.169800	2255.041016	1356.210449	-4.774534
265.772217	1392.618774	2248.214600	1401.720825	1.063826
266.148407	1410.822876	2357.439453	1415.373901	0.480768
266.524597	1378.965576	2423.429688	1388.067749	0.871468
266.900726	1347.108276	2375.643799	1381.241089	3.318584
267.276855	1326.628662	2600.920166	1360.761475	2.678572
267.652924	1340.281738	2646.430664	1351.659302	0.871077
268.028992	1376.690063	2755.655762	1401.720825	1.815184
268.404999	1403.996338	2691.941162	1401.720825	-0.176678
268.781006	1417.649414	2673.737061	1381.241089	-2.898550
269.156921	1381.241089	2594.093750	1506.394775	10.318953
269.532837	1383.516602	2657.808350	1424.476074	3.214293
269.908661	1338.006226	2671.461426	1433.578125	7.167237
270.284546	1290.220337	2589.542725	1474.537476	14.185636
270.660339	1410.822876	2534.930176	1510.945801	8.906883
271.036133	1303.873413	2685.114502	1506.394775	14.662274
271.411835	1347.108276	2833.023438	1435.853638	5.972438
271.787537	1351.659302	2939.972900	1499.568237	9.312325
272.163239	1444.955688	3160.698486	1490.466064	2.652517
272.538849	1401.720825	3340.464600	1492.741699	4.694838
272.914459	1340.281738	3217.586426	1476.812988	7.272727
273.290070	1344.832764	3206.208740	1460.884399	6.234723
273.665588	1338.006226	3024.167236	1465.435425	7.557356
274.041046	1390.343262	3005.962891	1467.710938	4.788731
274.416565	1392.618774	3049.197754	1454.057739	3.708786
274.791962	1419.924927	3021.891602	1488.190552	4.261364
275.167389	1351.659302	2812.543701	1388.067749	2.492220
275.542755	1426.751587	2789.788574	1435.853638	0.667777
275.918060	1467.710938	2835.298828	1406.271851	-4.492515
276.293365	1472.261963	2862.605225	1369.863525	-7.364975
276.668640	1419.924927	2899.013428	1469.986450	3.384620
277.043854	1326.628662	2978.656738	1469.986450	8.677685
277.419037	1365.312500	3010.513916	1497.292725	8.022132
277.794189	1306.148926	3030.993652	1485.915039	10.422162
278.169312	1417.649414	3012.789551	1465.435425	2.995725
278.544373	1408.547363	3040.095703	1449.506714	2.510459
278.919464	1353.934937	2967.279053	1499.568237	9.026797
279.294464	1344.832764	2942.248291	1415.373901	4.415954
279.669464	1360.761475	2951.350586	1469.986450	6.866951
280.044403	1340.281738	2942.248291	1488.190552	9.232953
280.419312	1312.975464	3003.687500	1488.190552	10.363390
280.794189	1435.853638	3099.259277	1424.476074	-0.683992
281.169037	1344.832764	3028.718262	1490.466064	8.648646
281.543854	1438.129150	3203.933350	1426.751587	-0.644328
281.918671	1413.098389	3176.626953	1474.537476	3.483872
282.293365	1417.649414	3338.188965	1410.822876	-0.355449
282.668091	1376.690063	3511.128662	1556.456177	8.422174
283.042786	1399.445313	3572.567627	1485.915039	3.979055
283.417419	1301.597900	3508.853027	1433.578125	5.979383
283.792053	1381.241089	3545.261475	1463.159912	3.785492
284.166595	1394.894287	3297.229736	1476.812988	4.306218
284.541138	1360.761475	3399.628174	1561.007324	9.821429
284.915619	1431.302612	3244.892578	1492.741699	3.387706
285.290100	1335.730713	3456.516113	1531.425537	9.227469
285.664520	1431.302612	3490.648926	1547.354126	5.635357
286.038940	1408.547363	3540.710449	1535.976563	5.976522
286.413300	1356.210449	3765.986816	1572.384888	8.970726
286.787628	1394.894287	3884.313965	1615.619751	8.866543
287.161896	1333.455200	3868.385254	1583.762451	9.874325
287.536194	1344.832764	3836.528076	1645.201538	12.054795
287.910400	1308.424438	3754.609375	1695.262939	15.813951
288.284607	1372.139038	3606.700439	1611.068726	10.692464
288.658752	1385.792114	3497.475586	1583.762451	9.375000
289.032867	1378.965576	3376.872803	1631.548462	12.642373
289.406921	1342.557251	3486.097900	1567.833862	10.509557
289.781006	1415.373901	3481.546875	1599.691162	8.920709
290.154999	1454.057739	3549.812500	1581.486938	6.080348
290.529022	1422.200562	3620.353516	1649.752563	10.351965
290.902954	1438.129150	3756.884766	1718.018188	12.070657
291.276825	1317.526489	3884.313965	1649.752563	12.943263
291.650757	1363.036987	3973.059326	1711.191650	13.339145
292.024597	1403.996338	3913.895752	1779.457275	14.959203
292.398407	1397.169800	3831.977051	1749.875488	14.485981
292.772156	1399.445313	3802.395264	1699.814087	12.500001
293.145905	1388.067749	3561.189941	1670.232300	12.984294
293.519592	1349.383789	3577.118652	1713.467163	16.343210
293.893280	1406.271851	3611.251465	1784.008301	17.131063
294.266907	1397.169800	3763.711426	1672.507813	11.634616
294.640533	1410.822876	3759.160400	1768.079712	15.213181
295.014069	1344.832764	3957.130615	1804.488037	17.595821
295.387604	1454.057739	4148.274414	1881.855713	15.878380
295.761078	1392.618774	4173.305176	1861.375977	16.857607
296.134552	1467.710938	4098.212891	1804.488037	12.802770
296.507996	1333.455200	4123.243652	1827.243164	17.699835
296.881378	1408.547363	4114.141602	1900.059814	18.166525
297.254730	1403.996338	4398.581543	1886.406738	16.109423
297.628021	1403.996338	4603.378418	1931.917114	16.500711
298.001282	1367.588013	4808.175293	1984.254150	17.923281
298.374573	1390.343262	4683.021973	2018.386963	19.073944
298.747803	1458.608887	4566.970215	1895.508789	14.055634
299.121002	1383.516602	4371.275391	1936.468262	18.507238
299.494141	1376.690063	4202.886719	1918.264038	19.162642
299.867188	1385.792114	4150.549805	1877.304688	17.777781
300.240265	1417.649414	4014.018799	1879.580200	17.791412
300.613312	1331.179688	3847.905762	1966.049927	25.226036
300.986328	1322.077637	3847.905762	1870.478149	21.711712
301.359314	1372.139038	3841.079102	1793.110352	17.050692
301.732239	1422.200562	3804.670898	1829.518677	17.096462
302.105103	1378.965576	3895.691650	1811.314575	17.179026
302.477997	1365.312500	3879.762939	1815.865601	17.918552
302.850830	1438.129150	3998.090088	1809.039063	14.488890
303.223602	1422.200562	3809.221924	1811.314575	16.301237
303.596375	1319.802124	3804.670898	1763.528564	17.857140
303.969116	1438.129150	3643.108887	1768.079712	14.963881
304.341766	1417.649414	3606.700439	1752.151001	15.280666
304.714478	1383.516602	3722.751953	1827.243164	18.968872
305.087067	1378.965576	3645.384277	1749.875488	16.365463
305.459656	1383.516602	3752.333740	1677.058838	12.391933
305.832214	1347.108276	3581.669678	1815.865601	20.977598
306.204681	1335.730713	3604.425049	1804.488037	20.661987
306.577148	1358.485962	3663.588379	1731.671387	16.189537
306.949646	1335.730713	3711.374512	1770.355225	18.295021
307.322021	1419.924927	3709.098877	1690.711914	11.829027
307.694397	1424.476074	3597.598389	1738.497925	14.450261
308.066742	1365.312500	3750.058350	1797.661377	18.129768
308.439026	1356.210449	3775.089111	1788.559326	17.873938
308.811279	1374.414551	3841.079102	1845.447388	19.095942
309.183502	1356.210449	4041.324951	1752.151001	14.745760
309.555695	1460.884399	3975.334961	1829.518677	14.660628
309.927887	1335.730713	4014.018799	1804.488037	17.502125
310.299988	1381.241089	4125.519043	1811.314575	15.671645
310.672058	1440.404663	4164.203125	1849.998413	15.037595
311.044128	1308.424438	4136.896973	1834.069824	18.584072
311.416168	1399.445313	4161.927734	1897.784302	18.039536
311.788147	1392.618774	4209.713379	1884.131226	17.447495
312.160065	1410.822876	4166.478516	1888.682251	17.341040
312.531982	1312.975464	4093.661865	1879.580200	20.376432
312.903870	1338.006226	4011.743164	1829.518677	18.382978
313.275696	1431.302612	3825.150391	1843.171875	17.205324
313.647491	1438.129150	3875.211914	1774.906250	13.818862
314.019318	1419.924927	3984.437012	1834.069824	16.149071
314.391022	1388.067749	3850.181152	1820.416626	17.560072
314.762726	1342.557251	4050.427002	1713.467163	13.697480
315.134369	1347.108276	4061.804688	1877.304688	19.530598
315.505981	1308.424438	4105.039551	1843.171875	19.121237
315.877594	1415.373901	4148.274414	1913.713013	18.234806
316.249146	1351.659302	4136.896973	1811.314575	16.503269
316.620636	1435.853638	3959.406250	1765.804199	13.074843
316.992157	1340.281738	3886.589600	1770.355225	16.890081
317.363586	1292.495850	3756.884766	1756.702026	18.836563
317.735016	1399.445313	3786.466553	1745.324463	14.489990
