Jaz Data File
++++++++++++++++++++++++++++++++++++
Date: Wed Feb 07 06:39:02 2024
User: jaz
Dark Spectrum Present: Yes
Reference Spectrum Present: Yes
Processed Spectrum Present: Yes
Spectrometers: JAZA3692
Integration Time (usec): 43100 (JAZA3692)
Spectra Averaged: 1 (JAZA3692)
Boxcar Smoothing: 0 (JAZA3692)
Correct for Electrical Dark: No (JAZA3692)
Strobe/Lamp Enabled: Yes (JAZA3692)
Correct for Detector Non-linearity: No (JAZA3692)
Correct for Stray Light: No (JAZA3692)
Number of Pixels in Processed Spectrum: 2048
>>>>>Begin Processed Spectral Data<<<<<
W	D	R	S	P
190.244385	0.000000	0.000000	0.000000	0.000000
190.627136	0.000000	0.000000	0.000000	0.000000
191.009842	1165.066650	1165.066650	1260.638550	0.000000
191.392532	1169.617676	1219.679199	1235.607788	131.818024
191.775177	1231.056763	1215.128052	1158.240112	457.140900
192.157791	1199.199463	1258.363037	1196.923950	-3.846138
192.540390	1246.985352	1210.577026	1194.648438	143.749847
192.922943	1276.567139	1251.536499	1253.812012	90.909088
193.305481	1253.812012	1281.118164	1287.944824	125.000450
193.687958	1221.954712	1217.403687	1206.026001	350.002686
194.070419	1253.812012	1246.985352	1165.066650	1299.982178
194.452866	1301.597900	1285.669312	1258.363037	271.429352
194.835251	1262.914063	1274.291626	1317.526489	480.001068
195.217621	1196.923950	1231.056763	1199.199463	6.666643
195.599960	1256.087524	1228.781250	1269.740601	-49.999775
195.982254	1272.016113	1228.781250	1285.669312	-31.579140
196.364517	1299.322388	1274.291626	1217.403687	327.272095
196.746750	1242.434326	1201.474976	1226.505737	38.888775
197.128952	1246.985352	1224.230225	1272.016113	-110.000534
197.511139	1312.975464	1221.954712	1319.802124	-7.500114
197.893280	1256.087524	1290.220337	1317.526489	179.999710
198.275391	1160.515625	1274.291626	1233.332275	64.000008
198.657471	1224.230225	1224.230225	1274.291626	0.000000
199.039520	1199.199463	1201.474976	1251.536499	2300.010742
199.421539	1285.669312	1265.189575	1212.852539	355.555237
199.803513	1358.485962	1306.148926	1224.230225	256.521484
200.185471	1301.597900	1338.006226	1258.363037	-118.749939
200.567383	1165.066650	1278.842651	1285.669312	106.000092
200.949265	1240.158813	1335.730713	1278.842651	40.476162
201.331131	1212.852539	1299.322388	1171.893188	-47.368362
201.712967	1294.771362	1319.802124	1269.740601	-100.000000
202.094742	1283.393677	1278.842651	1199.199463	1850.005371
202.476517	1253.812012	1324.353149	1228.781250	-35.483921
202.858231	1358.485962	1237.883301	1133.209351	186.792404
203.239944	1267.465088	1253.812012	1210.577026	416.668457
203.621582	1301.597900	1262.914063	1285.669312	41.176342
204.003235	1260.638550	1233.332275	1256.087524	16.666592
204.384827	1201.474976	1242.434326	1240.158813	94.444458
204.766388	1249.260864	1315.250977	1190.097412	-89.655029
205.147934	1253.812012	1315.250977	1242.434326	-18.518681
205.529449	1253.812012	1269.740601	1324.353149	442.858673
205.910904	1237.883301	1219.679199	1231.056763	37.500000
206.292343	1242.434326	1217.403687	1190.097412	209.091400
206.673767	1215.128052	1233.332275	1201.474976	-74.999496
207.055115	1235.607788	1208.301514	1149.138062	316.666138
207.436462	1180.995239	1215.128052	1183.270874	6.667000
207.817780	1297.046875	1262.914063	1201.474976	280.000061
208.199051	1160.515625	1283.393677	1251.536499	74.074150
208.580307	1235.607788	1274.291626	1153.689087	-211.764664
208.961517	1233.332275	1272.016113	1228.781250	-11.764668
209.342712	1171.893188	1242.434326	1237.883301	93.548409
209.723846	1165.066650	1308.424438	1251.536499	60.317509
210.104965	1196.923950	1240.158813	1180.995239	-36.842285
210.486069	1231.056763	1256.087524	1201.474976	-118.181732
210.867111	1253.812012	1344.832764	1276.567139	24.999933
211.248123	1201.474976	1315.250977	1283.393677	71.999985
211.629120	1210.577026	1244.709839	1194.648438	-46.666500
212.010071	1237.883301	1322.077637	1178.719727	-70.270256
212.390991	1297.046875	1249.260864	1190.097412	223.809143
212.771881	1242.434326	1301.597900	1267.465088	42.307724
213.152756	1299.322388	1235.607788	1219.679199	124.999901
213.533569	1292.495850	1294.771362	1267.465088	-1100.005371
213.914368	1203.750488	1369.863525	1221.954712	10.958938
214.295135	1158.240112	1274.291626	1174.168701	13.725447
214.675858	1256.087524	1237.883301	1262.914063	-37.499748
215.056549	1233.332275	1310.699951	1192.372925	-52.941166
215.437225	1237.883301	1258.363037	1194.648438	-211.110443
215.817841	1217.403687	1251.536499	1242.434326	73.333069
216.198441	1190.097412	1235.607788	1256.087524	145.000153
216.579025	1196.923950	1258.363037	1217.403687	33.333401
216.959549	1199.199463	1338.006226	1228.781250	21.311489
217.340057	1242.434326	1219.679199	1203.750488	170.000534
217.720535	1224.230225	1169.617676	1174.168701	91.666702
218.100967	1199.199463	1290.220337	1215.128052	17.499929
218.481369	1183.270874	1258.363037	1149.138062	-45.454559
218.861740	1251.536499	1210.577026	1201.474976	122.222092
219.242065	1244.709839	1276.567139	1196.923950	-149.999802
219.622391	1253.812012	1237.883301	1210.577026	271.428009
220.002670	1237.883301	1281.118164	1272.016113	78.947426
220.382919	1228.781250	1240.158813	1331.179688	900.003235
220.763123	1249.260864	1290.220337	1301.597900	127.777611
221.143295	1281.118164	1292.495850	1251.536499	-259.997223
221.523453	1242.434326	1290.220337	1297.046875	114.285645
221.903549	1226.505737	1290.220337	1217.403687	-14.285660
222.283630	1242.434326	1338.006226	1190.097412	-54.761822
222.663696	1246.985352	1224.230225	1190.097412	250.000534
223.043701	1219.679199	1281.118164	1196.923950	-37.037163
223.423676	1192.372925	1272.016113	1201.474976	11.428536
223.803635	1219.679199	1215.128052	1246.985352	-599.983887
224.183548	1194.648438	1331.179688	1224.230225	21.666679
224.563431	1201.474976	1281.118164	1310.699951	137.142899
224.943283	1246.985352	1244.709839	1158.240112	3900.010742
225.323105	1192.372925	1340.281738	1206.026001	9.230739
225.702881	1267.465088	1308.424438	1199.199463	-166.666763
226.082642	1196.923950	1328.904175	1224.230225	20.689671
226.462357	1251.536499	1342.557251	1274.291626	24.999933
226.842041	1221.954712	1301.597900	1215.128052	-8.571555
227.221695	1281.118164	1333.455200	1194.648438	-165.217087
227.601318	1212.852539	1317.526489	1278.842651	63.043491
227.980911	1196.923950	1385.792114	1251.536499	28.915699
228.360474	1215.128052	1376.690063	1226.505737	7.042303
228.739990	1196.923950	1365.312500	1192.372925	-2.702693
229.119476	1221.954712	1456.333252	1160.515625	-26.213615
229.498932	1246.985352	1467.710938	1246.985352	0.000000
229.878372	1228.781250	1481.364014	1253.812012	9.909925
230.257736	1242.434326	1554.180664	1253.812012	3.649661
230.637115	1192.372925	1542.803101	1290.220337	27.922085
231.016449	1240.158813	1588.313477	1262.914063	6.535960
231.395737	1278.842651	1549.629639	1294.771362	5.882377
231.774994	1206.026001	1467.710938	1287.944824	31.304371
232.154221	1219.679199	1424.476074	1217.403687	-1.111107
232.533417	1203.750488	1460.884399	1237.883301	13.274333
232.912582	1237.883301	1495.017212	1267.465088	11.504429
233.291702	1240.158813	1513.221313	1224.230225	-5.833313
233.670792	1215.128052	1372.139038	1190.097412	-15.941967
234.049866	1237.883301	1408.547363	1262.914063	14.666686
234.428894	1276.567139	1444.955688	1221.954712	-32.432388
234.807892	1206.026001	1435.853638	1192.372925	-5.940572
235.186874	1251.536499	1372.139038	1267.465088	13.207507
235.565781	1194.648438	1433.578125	1235.607788	17.142847
235.944687	1192.372925	1435.853638	1249.260864	23.364454
236.323547	1201.474976	1449.506714	1192.372925	-3.669712
236.702377	1208.301514	1563.282837	1319.802124	31.410275
237.081177	1180.995239	1501.843750	1294.771362	35.461010
237.459946	1322.077637	1474.537476	1251.536499	-46.268669
237.838669	1260.638550	1492.741699	1242.434326	-7.843161
238.217361	1260.638550	1472.261963	1235.607788	-11.827973
238.596039	1219.679199	1458.608887	1260.638550	17.142847
238.974670	1251.536499	1510.945801	1246.985352	-1.754427
239.353271	1244.709839	1504.119263	1299.322388	21.052647
239.731842	1199.199463	1447.231201	1299.322388	40.366982
240.110367	1256.087524	1545.078613	1231.056763	-8.661430
240.488876	1228.781250	1522.323364	1262.914063	11.627910
240.867340	1219.679199	1595.140137	1215.128052	-1.212149
241.245789	1253.812012	1586.037964	1262.914063	2.739717
241.624176	1208.301514	1711.191650	1272.016113	12.669685
242.002548	1294.771362	1649.752563	1299.322388	1.282047
242.380890	1292.495850	1822.692139	1297.046875	0.858366
242.759186	1192.372925	1843.171875	1262.914063	10.839160
243.137451	1251.536499	1934.192627	1262.914063	1.666661
243.515686	1253.812012	2088.927979	1331.179688	9.264303
243.893890	1185.546387	2043.417725	1287.944824	11.936339
244.272049	1267.465088	2148.091553	1299.322388	3.617572
244.650192	1237.883301	2075.274902	1303.873413	7.880436
245.028290	1221.954712	1895.508789	1267.465088	6.756752
245.406357	1203.750488	1847.722900	1278.842651	11.660773
245.784393	1199.199463	1804.488037	1249.260864	8.270667
246.162384	1251.536499	1843.171875	1228.781250	-3.846161
246.540359	1242.434326	1925.090576	1292.495850	7.333343
246.918289	1240.158813	2002.458252	1262.914063	2.985080
247.296204	1251.536499	2186.775391	1292.495850	4.379560
247.674057	1215.128052	2464.388916	1310.699951	7.650276
248.051895	1237.883301	2691.941162	1351.659302	7.824723
248.429703	1233.332275	2767.033203	1429.027100	12.759647
248.807465	1285.669312	2839.849854	1365.312500	5.124449
249.185196	1278.842651	2546.307861	1338.006226	4.667866
249.562897	1240.158813	2373.368164	1399.445313	14.056229
249.940567	1180.995239	2311.929199	1410.822876	20.321932
250.318192	1174.168701	2102.581299	1322.077637	15.931379
250.695801	1210.577026	2088.927979	1258.363037	5.440423
251.073349	1185.546387	1945.570313	1249.260864	8.383220
251.450882	1235.607788	1927.366089	1347.108276	16.118418
251.828400	1281.118164	1879.580200	1301.597900	3.422061
252.205872	1251.536499	1931.917114	1342.557251	13.377916
252.583313	1235.607788	2025.213501	1324.353149	11.239200
252.960693	1185.546387	2091.203613	1365.312500	19.849243
253.338074	1278.842651	2291.449463	1413.098389	13.258428
253.715408	1260.638550	2239.112549	1392.618774	13.488373
254.092682	1240.158813	2047.968750	1349.383789	13.521123
254.469955	1142.311401	1890.957764	1244.709839	13.677812
254.847198	1217.403687	1936.468262	1297.046875	11.075944
255.224365	1215.128052	1913.713013	1331.179688	16.612387
255.601563	1269.740601	1877.304688	1272.016113	0.374530
255.978683	1256.087524	1802.212524	1251.536499	-0.833330
256.355743	1199.199463	1859.100464	1317.526489	17.931026
256.732819	1251.536499	1890.957764	1303.873413	8.185044
257.109894	1176.444214	1954.672363	1319.802124	18.421064
257.486877	1226.505737	1909.161987	1331.179688	15.333332
257.863831	1267.465088	2066.172852	1308.424438	5.128202
258.240753	1192.372925	2120.785400	1299.322388	11.519607
258.617645	1219.679199	2198.153076	1338.006226	12.093019
258.994507	1110.454102	2280.071777	1340.281738	19.649809
259.371307	1274.291626	2232.285889	1360.761475	9.026134
259.748108	1162.791138	2509.899414	1415.373901	18.749998
260.124878	1158.240112	2751.104736	1385.792114	14.285708
260.501617	1249.260864	3106.085938	1358.485962	5.882358
260.878296	1297.046875	3319.984863	1440.404663	7.086613
261.254944	1201.474976	3445.138428	1483.639526	12.576063
261.631561	1199.199463	3299.505127	1499.568237	14.301193
262.008179	1167.342163	3056.024414	1363.036987	10.361447
262.384735	1240.158813	2762.482178	1413.098389	11.360239
262.761261	1237.883301	2503.072998	1385.792114	11.690643
263.137695	1199.199463	2373.368164	1356.210449	13.372098
263.514191	1269.740601	2416.603027	1369.863525	8.730160
263.890594	1260.638550	2318.755615	1376.690063	10.967738
264.267029	1249.260864	2373.368164	1351.659302	9.109312
264.643341	1203.750488	2264.143311	1415.373901	19.957077
265.019653	1226.505737	2191.326416	1347.108276	12.499995
265.395935	1224.230225	2234.561523	1349.383789	12.387379
265.772217	1231.056763	2193.602051	1267.465088	3.782505
266.148407	1228.781250	2264.143311	1249.260864	1.978015
266.524597	1281.118164	2405.225586	1340.281738	5.263160
266.900726	1226.505737	2441.633789	1262.914063	2.996254
267.276855	1237.883301	2459.837891	1363.036987	10.242090
267.652924	1228.781250	2580.440674	1356.210449	9.427611
268.028992	1183.270874	2539.481201	1406.271851	16.442949
268.404999	1185.546387	2603.195801	1338.006226	10.754411
268.781006	1224.230225	2589.542725	1376.690063	11.166662
269.156921	1155.964600	2589.542725	1256.087524	6.984128
269.532837	1249.260864	2534.930176	1283.393677	2.654867
269.908661	1306.148926	2587.267090	1392.618774	6.749561
270.284546	1269.740601	2571.338623	1356.210449	6.643361
270.660339	1269.740601	2655.532715	1358.485962	6.403945
271.036133	1244.709839	2587.267090	1394.894287	11.186446
271.411835	1292.495850	2705.594238	1299.322388	0.483090
271.787537	1183.270874	2858.054199	1378.965576	11.684777
272.163239	1237.883301	3112.912354	1495.017212	13.713596
272.538849	1201.474976	3283.576416	1385.792114	8.852457
272.914459	1215.128052	3324.535889	1460.884399	11.650491
273.290070	1258.363037	3096.983887	1372.139038	6.188117
273.665588	1169.617676	2990.034424	1351.659302	9.999997
274.041046	1294.771362	2994.585449	1381.241089	5.087011
274.416565	1203.750488	2912.666504	1367.588013	9.587219
274.791962	1219.679199	2807.992676	1358.485962	8.739255
275.167389	1274.291626	2796.614990	1349.383789	4.932734
275.542755	1199.199463	2833.023438	1406.271851	12.674094
275.918060	1206.026001	2769.308838	1342.557251	8.733624
276.293365	1151.413574	2792.063965	1338.006226	11.373091
276.668640	1215.128052	2851.227539	1406.271851	11.682896
277.043854	1256.087524	2864.880615	1399.445313	8.910891
277.419037	1292.495850	2990.034424	1353.934937	3.619304
277.794189	1171.893188	3026.442627	1363.036987	10.306751
278.169312	1228.781250	2967.279053	1378.965576	8.638741
278.544373	1258.363037	2885.360352	1406.271851	9.090907
278.919464	1260.638550	2903.564453	1369.863525	6.648199
279.294464	1226.505737	2924.044189	1410.822876	10.857906
279.669464	1153.689087	2871.707275	1426.751587	15.894040
280.044403	1212.852539	2735.176025	1381.241089	11.061286
280.419312	1206.026001	2919.493164	1417.649414	12.350596
280.794189	1208.301514	2955.901611	1383.516602	10.026040
281.169037	1226.505737	3053.749023	1397.169800	9.339974
281.543854	1235.607788	3087.881836	1335.730713	5.405406
281.918671	1251.536499	3124.290039	1467.710938	11.543134
282.293365	1283.393677	3381.423828	1374.414551	4.338397
282.668091	1258.363037	3310.882813	1460.884399	9.866962
283.042786	1249.260864	3506.577637	1394.894287	6.451616
283.417419	1251.536499	3540.710449	1458.608887	9.045726
283.792053	1219.679199	3379.148438	1406.271851	8.640672
284.166595	1249.260864	3333.637939	1431.302612	8.733629
284.541138	1210.577026	3147.045166	1488.190552	14.336075
284.915619	1262.914063	3301.780762	1538.252075	13.504463
285.290100	1283.393677	3363.219727	1497.292725	10.284468
285.664520	1219.679199	3438.312012	1517.772339	13.435893
286.038940	1185.546387	3351.842041	1542.803101	16.491596
286.413300	1228.781250	3604.425049	1545.078613	13.314175
286.787628	1265.189575	3699.996826	1531.425537	10.934581
287.161896	1237.883301	3836.528076	1601.966675	14.010509
287.536194	1180.995239	3870.660889	1599.691162	15.566840
287.910400	1274.291626	3847.905762	1583.762451	12.024755
288.284607	1206.026001	3638.557861	1549.629639	14.125351
288.658752	1253.812012	3340.464600	1567.833862	15.049072
289.032867	1240.158813	3247.168213	1517.772339	13.832198
289.406921	1187.821899	3363.219727	1495.017212	14.121339
289.781006	1190.097412	3447.414063	1565.558350	16.633064
290.154999	1331.179688	3436.036377	1556.456177	10.702700
290.529022	1240.158813	3615.802490	1606.517700	15.421458
290.902954	1251.536499	3738.680664	1645.201538	15.827995
291.276825	1253.812012	3886.589600	1652.028076	15.125321
291.650757	1201.474976	3866.109863	1745.324463	20.409908
292.024597	1233.332275	3841.079102	1704.365112	18.062828
292.398407	1219.679199	3704.547852	1795.385864	23.168495
292.772156	1242.434326	3670.415039	1763.528564	21.462042
293.145905	1249.260864	3531.608398	1738.497925	21.435694
293.519592	1249.260864	3527.057129	1672.507813	18.581421
293.893280	1281.118164	3563.465576	1745.324463	20.338985
294.266907	1246.985352	3574.843262	1704.365112	19.648096
294.640533	1178.719727	3781.915527	1754.426514	22.115385
295.014069	1169.617676	3988.988037	1777.181763	21.549637
295.387604	1258.363037	4102.764160	1831.794189	20.159996
295.761078	1228.781250	4148.274414	1736.222412	17.381140
296.134552	1226.505737	4029.947266	1865.927002	22.808441
296.507996	1217.403687	4000.365479	1768.079712	19.787409
296.881378	1317.526489	4196.060547	1809.039063	17.075100
297.254730	1244.709839	4341.693848	1895.508789	21.013960
297.628021	1206.026001	4639.787109	1922.815063	20.874750
298.001282	1258.363037	4623.858398	2002.458252	22.109529
298.374573	1253.812012	4705.776855	1956.947876	20.369148
298.747803	1169.617676	4519.184082	1915.988525	22.282612
299.121002	1244.709839	4348.520020	1915.988525	21.627569
299.494141	1162.791138	4120.968262	1915.988525	25.461536
299.867188	1135.484863	4009.467773	1831.794189	24.228025
300.240265	1183.270874	3886.589600	1847.722900	24.579121
300.613312	1287.944824	3936.650879	1781.732788	18.642611
300.986328	1196.923950	3932.099854	1827.243164	23.044926
301.359314	1242.434326	3852.456787	1820.416626	22.144726
301.732239	1206.026001	3786.466553	1797.661377	22.927691
302.105103	1262.914063	3674.966064	1840.896362	23.962265
302.477997	1260.638550	3756.884766	1699.814087	17.593439
302.850830	1185.546387	3963.957275	1829.518677	23.177719
303.223602	1235.607788	3699.996826	1761.253052	21.329638
303.596375	1219.679199	3638.557861	1761.253052	22.389460
303.969116	1219.679199	3613.527100	1743.048950	21.863117
304.341766	1194.648438	3540.710449	1743.048950	23.375362
304.714478	1233.332275	3572.567627	1745.324463	21.887159
305.087067	1242.434326	3581.669678	1727.120239	20.719845
305.459656	1231.056763	3561.189941	1788.559326	23.925779
305.832214	1269.740601	3634.006836	1683.885376	17.516842
306.204681	1297.046875	3438.312012	1774.906250	22.316685
306.577148	1260.638550	3533.883789	1806.763550	24.024027
306.949646	1265.189575	3574.843262	1699.814087	18.817734
307.322021	1281.118164	3608.976074	1727.120239	19.159334
307.694397	1237.883301	3547.536865	1720.293701	20.886700
308.066742	1308.424438	3481.546875	1652.028076	15.811517
308.439026	1253.812012	3586.220703	1804.488037	23.609756
308.811279	1276.567139	3950.304199	1765.804199	18.297874
309.183502	1258.363037	3904.793701	1802.212524	20.550303
309.555695	1242.434326	3954.855225	1840.896362	22.063761
309.927887	1244.709839	3866.109863	1865.927002	23.697916
310.299988	1169.617676	3966.232666	1868.202637	24.979662
310.672058	1162.791138	4020.845215	1847.722900	23.964968
311.044128	1228.781250	4218.815430	1877.304688	21.689499
311.416168	1251.536499	4189.233887	1772.630737	17.738188
311.788147	1171.893188	4011.743164	1840.896362	23.557693
312.160065	1215.128052	4109.590332	1809.039063	20.518871
312.531982	1212.852539	4182.407227	1806.763550	20.000002
312.903870	1208.301514	4050.427002	1843.171875	22.337872
313.275696	1272.016113	3895.691650	1786.283813	19.601040
313.647491	1146.862427	3927.548828	1845.447388	25.122751
314.019318	1240.158813	3841.079102	1781.732788	20.822397
314.391022	1281.118164	3800.119629	1743.048950	18.337852
314.762726	1253.812012	3884.313965	1806.763550	21.020761
315.134369	1242.434326	4048.151611	1795.385864	19.708027
315.505981	1246.985352	4266.601563	1838.620850	19.593069
315.877594	1199.199463	4191.509277	1870.478149	22.433462
316.249146	1187.821899	4189.233887	1845.447388	21.910536
316.620636	1169.617676	4023.120850	1845.447388	23.684212
316.992157	1301.597900	3831.977051	1820.416626	20.503595
317.363586	1287.944824	3699.996826	1770.355225	20.000000
317.735016	1178.719727	3697.721191	1781.732788	23.938576
318.106354	1187.821899	3809.221924	1738.497925	21.006945
