Jaz Data File
++++++++++++++++++++++++++++++++++++
Date: Wed Feb 07 06:47:29 2024
User: jaz
Dark Spectrum Present: Yes
Reference Spectrum Present: Yes
Processed Spectrum Present: Yes
Spectrometers: JAZA3692
Integration Time (usec): 47000 (JAZA3692)
Spectra Averaged: 1 (JAZA3692)
Boxcar Smoothing: 0 (JAZA3692)
Correct for Electrical Dark: No (JAZA3692)
Strobe/Lamp Enabled: Yes (JAZA3692)
Correct for Detector Non-linearity: No (JAZA3692)
Correct for Stray Light: No (JAZA3692)
Number of Pixels in Processed Spectrum: 2048
>>>>>Begin Processed Spectral Data<<<<<
W	D	R	S	P
190.244385	0.000000	0.000000	0.000000	0.000000
190.627136	0.000000	0.000000	0.000000	0.000000
191.009842	1044.463989	1105.903076	1014.882263	-48.148056
191.392532	964.820801	1023.984375	1053.566162	150.000000
191.775177	1033.086426	971.647400	1046.739624	-22.222355
192.157791	1092.250000	1023.984375	1014.882263	113.333374
192.540390	1117.280762	1112.729614	1046.739624	1549.963745
192.922943	1119.556274	1058.117188	1023.984375	155.555527
193.305481	1064.943726	1151.413574	1028.535400	-42.105225
193.687958	1089.974487	1037.637451	1001.229126	169.565125
194.070419	1162.791138	1089.974487	1110.454102	71.875092
194.452866	1060.392700	1130.933838	1030.810913	-41.935513
194.835251	1115.005249	1117.280762	1014.882263	-4400.018555
195.217621	1049.015137	1049.015137	996.678101	0.000000
195.599960	1033.086426	1105.903076	1023.984375	-12.499958
195.982254	1158.240112	1094.525513	1071.770264	135.714340
196.364517	1094.525513	1144.586914	1062.668213	-63.636452
196.746750	1101.352051	1167.342163	994.402588	-162.068924
197.128952	1119.556274	1060.392700	1058.117188	103.846138
197.511139	1137.760376	1055.841675	1012.606750	152.777847
197.893280	1101.352051	1021.708862	1076.321289	31.428629
198.275391	1117.280762	1076.321289	1055.841675	149.999695
198.657471	1128.658325	1069.494751	1035.361938	157.692276
199.039520	989.851563	1108.178589	1017.157776	23.076902
199.421539	1089.974487	1087.698975	1071.770264	800.005371
199.803513	1099.076538	1039.912964	1005.780212	157.692169
200.185471	1017.157776	1140.035889	1037.637451	16.666658
200.567383	1053.566162	1124.107300	1117.280762	90.322617
200.949265	1087.698975	1094.525513	987.576050	-1466.671997
201.331131	1042.188477	1128.658325	1108.178589	76.315750
201.712967	1049.015137	1069.494751	1085.423462	177.778381
202.094742	1105.903076	1115.005249	1028.535400	-849.991272
202.476517	1128.658325	1135.484863	1064.943726	-933.336914
202.858231	1128.658325	1055.841675	1110.454102	25.000084
203.239944	1071.770264	1144.586914	1085.423462	18.750105
203.621582	1137.760376	1026.259888	1003.504700	120.408150
204.003235	1108.178589	1037.637451	1117.280762	-12.903355
204.384827	1060.392700	1053.566162	1062.668213	-33.333332
204.766388	1055.841675	1142.311401	1017.157776	-44.736927
205.147934	1092.250000	1105.903076	1058.117188	-250.000900
205.529449	1064.943726	1162.791138	987.576050	-79.069717
205.910904	1140.035889	1124.107300	994.402588	914.288757
206.292343	1037.637451	1151.413574	992.127075	-39.999935
206.673767	1044.463989	1112.729614	1035.361938	-13.333285
207.055115	1044.463989	1137.760376	998.953613	-48.780426
207.436462	1105.903076	1201.474976	1060.392700	-47.618992
207.817780	1078.596802	1119.556274	985.300537	-227.777023
208.199051	1142.311401	1089.974487	978.473938	313.043793
208.580307	1076.321289	1140.035889	1055.841675	-32.142735
208.961517	1094.525513	1064.943726	1019.433350	253.845932
209.342712	1060.392700	1151.413574	1010.331238	-54.999981
209.723846	1074.045776	1112.729614	996.678101	-200.000000
210.104965	1053.566162	1062.668213	1055.841675	25.000000
210.486069	1074.045776	1096.801025	1094.525513	90.000053
210.867111	1074.045776	1117.280762	1017.157776	-131.578629
211.248123	1085.423462	1112.729614	1019.433350	-241.667557
211.629120	1069.494751	1146.862427	1064.943726	-5.882334
212.010071	980.749451	1094.525513	1060.392700	70.000008
212.390991	1026.259888	1119.556274	1069.494751	46.341412
212.771881	1058.117188	1171.893188	1117.280762	52.000046
213.152756	1062.668213	1046.739624	1101.352051	-242.857910
213.533569	998.953613	1085.423462	1049.015137	57.894775
213.914368	1030.810913	1087.698975	960.269775	-123.999893
214.295135	1067.219238	1108.178589	1042.188477	-61.111225
214.675858	1087.698975	1126.382813	1023.984375	-164.705994
215.056549	1103.627563	1151.413574	1064.943726	-80.952225
215.437225	1010.331238	1103.627563	1058.117188	51.219540
215.817841	1101.352051	1080.872437	998.953613	500.001801
216.198441	1019.433350	1142.311401	1071.770264	42.592564
216.579025	1119.556274	1074.045776	1080.872437	84.999809
216.959549	1112.729614	1112.729614	1005.780212	0.000000
217.340057	1021.708862	1115.005249	1030.810913	9.756060
217.720535	1105.903076	1028.535400	1042.188477	82.352997
218.100967	1083.147949	1060.392700	1080.872437	9.999947
218.481369	1096.801025	1049.015137	1046.739624	104.761894
218.861740	1019.433350	1067.219238	1023.984375	9.523786
219.242065	1060.392700	1103.627563	1021.708862	-89.473717
219.622391	1064.943726	1089.974487	1046.739624	-72.726921
220.002670	1055.841675	1137.760376	1051.290649	-5.555539
220.382919	1092.250000	1128.658325	1044.463989	-131.250229
220.763123	1049.015137	1187.821899	1033.086426	-11.475457
221.143295	1028.535400	1121.831787	1051.290649	24.390280
221.523453	1037.637451	1110.454102	1035.361938	-3.124990
221.903549	1135.484863	1087.698975	926.136963	438.095642
222.283630	1096.801025	1055.841675	1026.259888	172.222305
222.663696	1085.423462	1051.290649	1021.708862	186.666718
223.043701	1144.586914	1119.556274	967.096313	709.093323
223.423676	1096.801025	1112.729614	1030.810913	-414.287262
223.803635	1026.259888	1071.770264	1060.392700	75.000069
224.183548	1046.739624	1117.280762	996.678101	-70.967842
224.563431	1083.147949	1096.801025	992.127075	-666.669373
224.943283	1087.698975	1108.178589	1058.117188	-144.445038
225.323105	1130.933838	1105.903076	987.576050	572.726440
225.702881	1023.984375	1096.801025	1042.188477	24.999916
226.082642	1030.810913	1135.484863	1058.117188	26.086983
226.462357	1042.188477	1178.719727	1055.841675	10.000053
226.842041	1083.147949	1099.076538	971.647400	-700.002686
227.221695	1133.209351	1092.250000	1094.525513	94.444458
227.601318	1062.668213	1133.209351	1046.739624	-22.580566
227.980911	960.269775	1187.821899	1087.698975	56.000004
228.360474	1092.250000	1187.821899	1069.494751	-23.809561
228.739990	1033.086426	1167.342163	1039.912964	5.084727
229.119476	1124.107300	1240.158813	1083.147949	-35.294113
229.498932	1092.250000	1265.189575	978.473938	-65.789490
229.878372	1105.903076	1299.322388	1053.566162	-27.058784
230.257736	1080.872437	1299.322388	1039.912964	-18.750050
230.637115	998.953613	1363.036987	1035.361938	9.999996
231.016449	1071.770264	1374.414551	1046.739624	-8.270647
231.395737	1089.974487	1385.792114	1071.770264	-6.153867
231.774994	1067.219238	1235.607788	1064.943726	-1.351346
232.154221	1023.984375	1267.465088	1028.535400	1.869152
232.533417	1030.810913	1242.434326	1060.392700	13.978504
232.912582	1115.005249	1246.985352	1112.729614	-1.724226
233.291702	1026.259888	1274.291626	1092.250000	26.605511
233.670792	1103.627563	1281.118164	1071.770264	-17.948725
234.049866	1121.831787	1258.363037	1076.321289	-33.333393
234.428894	1001.229126	1237.883301	1062.668213	25.961548
234.807892	1119.556274	1253.812012	1046.739624	-54.237274
235.186874	1076.321289	1319.802124	1108.178589	13.084110
235.565781	1083.147949	1308.424438	1028.535400	-24.242455
235.944687	1003.504700	1363.036987	1069.494751	18.354416
236.323547	1083.147949	1269.740601	1030.810913	-28.048820
236.702377	1083.147949	1317.526489	1060.392700	-9.708759
237.081177	1103.627563	1367.588013	1039.912964	-24.137934
237.459946	1060.392700	1338.006226	1055.841675	-1.639338
237.838669	1069.494751	1315.250977	1035.361938	-13.888890
238.217361	1046.739624	1237.883301	1051.290649	2.380945
238.596039	1042.188477	1281.118164	1026.259888	-6.666643
238.974670	1067.219238	1340.281738	1039.912964	-10.000009
239.353271	1039.912964	1235.607788	1028.535400	-5.813932
239.731842	1096.801025	1363.036987	1019.433350	-29.059814
240.110367	1121.831787	1196.923950	1085.423462	-48.484852
240.488876	1044.463989	1392.618774	1069.494751	7.189550
240.867340	1028.535400	1356.210449	1092.250000	19.444447
241.245789	1105.903076	1479.088501	1069.494751	-9.756095
241.624176	1115.005249	1485.915039	1044.463989	-19.018440
242.002548	1069.494751	1479.088501	1155.964600	21.111126
242.380890	998.953613	1558.731689	1096.801025	17.479679
242.759186	1076.321289	1642.926025	1037.637451	-6.827306
243.137451	1010.331238	1847.722900	1135.484863	14.945650
243.515686	1035.361938	1890.957764	1115.005249	9.308520
243.893890	1069.494751	1909.161987	1049.015137	-2.439016
244.272049	1028.535400	1888.682251	1062.668213	3.968254
244.650192	1058.117188	1802.212524	1074.045776	2.140665
245.028290	1023.984375	1704.365112	1099.076538	11.036785
245.406357	1060.392700	1686.160889	1112.729614	8.363626
245.784393	1005.780212	1747.599976	996.678101	-1.226998
246.162384	1035.361938	1617.895264	1101.352051	11.328127
246.540359	1026.259888	1649.752563	1080.872437	8.759132
246.918289	1078.596802	1824.967651	1117.280762	5.182941
247.296204	1096.801025	1988.805176	1058.117188	-4.336733
247.674057	1178.719727	2220.908203	1215.128052	3.493449
248.051895	1137.760376	2521.277100	1199.199463	4.440791
248.429703	1062.668213	2598.644775	1165.066650	6.666667
248.807465	1099.076538	2471.215576	1146.862427	3.482584
249.185196	1096.801025	2471.215576	1240.158813	10.430462
249.562897	1092.250000	2232.285889	1158.240112	5.788424
249.940567	1126.382813	2164.020264	1121.831787	-0.438595
250.318192	1112.729614	1959.223389	1124.107300	1.344096
250.695801	1030.810913	1879.580200	1174.168701	16.890078
251.073349	1028.535400	1840.896362	1051.290649	2.801125
251.450882	1092.250000	1793.110352	1089.974487	-0.324674
251.828400	1099.076538	1752.151001	1089.974487	-1.393723
252.205872	1087.698975	1772.630737	1078.596802	-1.328917
252.583313	1053.566162	1845.447388	1124.107300	8.908045
252.960693	1028.535400	1947.845825	1158.240112	14.108913
253.338074	1092.250000	2016.111450	1196.923950	11.330049
253.715408	1117.280762	1966.049927	1142.311401	2.949051
254.092682	1037.637451	1872.753662	1089.974487	6.267036
254.469955	1076.321289	1806.763550	1083.147949	0.934593
254.847198	1017.157776	1686.160889	1135.484863	17.687077
255.224365	1099.076538	1747.599976	1078.596802	-3.157902
255.601563	1085.423462	1736.222412	1165.066650	12.237756
255.978683	1103.627563	1708.916138	1135.484863	5.263159
256.355743	1033.086426	1765.804199	1124.107300	12.422364
256.732819	1078.596802	1743.048950	1192.372925	17.123299
257.109894	1023.984375	1795.385864	1126.382813	13.274338
257.486877	1105.903076	1745.324463	1137.760376	4.982207
257.863831	1083.147949	1799.937012	1176.444214	13.015861
258.240753	1019.433350	1929.641602	1126.382813	11.749999
258.617645	1096.801025	1975.152100	1124.107300	3.108811
258.994507	1099.076538	2047.968750	1112.729614	1.438844
259.371307	1089.974487	2220.908203	1162.791138	6.438631
259.748108	1089.974487	2200.428711	1226.505737	12.295081
260.124878	1080.872437	2616.848877	1194.648438	7.407405
260.501617	1085.423462	2928.595215	1228.781250	7.777777
260.878296	1064.943726	3208.484375	1272.016113	9.660297
261.254944	1119.556274	3390.525879	1285.669312	7.314630
261.631561	1058.117188	3203.933350	1292.495850	10.922588
262.008179	1096.801025	2876.258301	1196.923950	5.626599
262.384735	1058.117188	2523.552490	1144.586914	5.900617
262.761261	1076.321289	2298.276123	1221.954712	11.918069
263.137695	1083.147949	2218.632813	1206.026001	10.821637
263.514191	1071.770264	2189.051025	1094.525513	2.036664
263.890594	1012.606750	2168.571289	1130.933838	10.236220
264.267029	1074.045776	2177.673340	1128.658325	4.948458
264.643341	1117.280762	2202.704102	1165.066650	4.402512
265.019653	1062.668213	2145.816162	1112.729614	4.621843
265.395935	1083.147949	2175.397949	1162.791138	7.291663
265.772217	985.300537	2125.336426	1053.566162	5.988024
266.148407	1042.188477	2052.519775	1087.698975	4.504512
266.524597	1085.423462	2236.836914	1121.831787	3.162055
266.900726	1062.668213	2243.663574	1199.199463	11.560693
267.276855	1085.423462	2339.235352	1171.893188	6.896547
267.652924	1083.147949	2446.184814	1155.964600	5.342237
268.028992	1028.535400	2462.113525	1128.658325	6.984128
268.404999	1094.525513	2466.664551	1124.107300	2.155889
268.781006	1128.658325	2361.990479	1146.862427	1.476010
269.156921	985.300537	2268.694336	1162.791138	13.829784
269.532837	1105.903076	2336.959961	1137.760376	2.587801
269.908661	1010.331238	2459.837891	1176.444214	11.459967
270.284546	1053.566162	2380.194824	1180.995239	9.605482
270.660339	1039.912964	2491.695313	1165.066650	8.620692
271.036133	1071.770264	2484.868652	1194.648438	8.695656
271.411835	1076.321289	2573.614014	1221.954712	9.726450
271.787537	1035.361938	2853.503174	1240.158813	11.264079
272.163239	1030.810913	2965.003662	1276.567139	12.705881
272.538849	1046.739624	3090.157227	1215.128052	8.240529
272.914459	1010.331238	3144.769775	1237.883301	10.660980
273.290070	1092.250000	2944.523926	1237.883301	7.862406
273.665588	1130.933838	2919.493164	1246.985352	6.488547
274.041046	1055.841675	2949.074951	1349.383789	15.504805
274.416565	1044.463989	2798.890625	1178.719727	7.652400
274.791962	1071.770264	2751.104736	1160.515625	5.284555
275.167389	1092.250000	2687.390137	1165.066650	4.564906
275.542755	1028.535400	2682.839111	1221.954712	11.691887
275.918060	1014.882263	2689.665527	1135.484863	7.201087
276.293365	1053.566162	2698.767578	1208.301514	9.405252
276.668640	1076.321289	2619.124512	1151.413574	4.867263
277.043854	1094.525513	2655.532715	1158.240112	4.081634
277.419037	1092.250000	2757.931152	1217.403687	7.513664
277.794189	1008.055725	2735.176025	1260.638550	14.624506
278.169312	1087.698975	2757.931152	1258.363037	10.217984
278.544373	1014.882263	2776.135498	1144.586914	7.364339
278.919464	1051.290649	2735.176025	1142.311401	5.405401
279.294464	1124.107300	2803.441650	1146.862427	1.355009
279.669464	1071.770264	2771.584229	1187.821899	6.827314
280.044403	1014.882263	2801.166016	1140.035889	7.006369
280.419312	1010.331238	2810.268311	1221.954712	11.757271
280.794189	1087.698975	2848.952148	1228.781250	8.010335
281.169037	1069.494751	2990.034424	1185.546387	6.042657
281.543854	1071.770264	3008.238525	1185.546387	5.875445
281.918671	1110.454102	3076.504150	1187.821899	3.935190
282.293365	1067.219238	3224.413086	1210.577026	6.645568
282.668091	1062.668213	3210.759766	1281.118164	10.169490
283.042786	1112.729614	3379.148438	1267.465088	6.827311
283.417419	1176.444214	3470.169189	1249.260864	3.174602
283.792053	1105.903076	3279.025391	1183.270874	3.560214
284.166595	1080.872437	3192.555664	1249.260864	7.974133
284.541138	1033.086426	3165.249512	1226.505737	9.071507
284.915619	1021.708862	3115.187988	1276.567139	12.173911
285.290100	1169.617676	3358.668701	1287.944824	5.405408
285.664520	1017.157776	3390.525879	1199.199463	7.670183
286.038940	1071.770264	3465.618164	1312.975464	10.076045
286.413300	1042.188477	3476.995850	1310.699951	11.028038
286.787628	1058.117188	3679.517090	1294.771362	9.027779
287.161896	1133.209351	3843.354736	1388.067749	9.403864
287.536194	1012.606750	3718.200928	1353.934937	12.615645
287.910400	1060.392700	3702.272461	1360.761475	11.369509
288.284607	1103.627563	3379.148438	1331.179688	10.000001
288.658752	1017.157776	3306.331787	1315.250977	13.021867
289.032867	1042.188477	3210.759766	1351.659302	14.270724
289.406921	1085.423462	3356.393066	1372.139038	12.625249
289.781006	1030.810913	3372.321777	1276.567139	10.495626
290.154999	1035.361938	3269.923340	1431.302612	17.718943
290.529022	1087.698975	3520.230713	1401.720825	12.909260
290.902954	1101.352051	3690.894775	1383.516602	10.896308
291.276825	1074.045776	3843.354736	1476.812988	14.543961
291.650757	1085.423462	3877.487549	1447.231201	12.958433
292.024597	1101.352051	3922.997803	1442.680176	12.096774
292.398407	1103.627563	3597.598389	1429.027100	13.047448
292.772156	1108.178589	3545.261475	1424.476074	12.978527
293.145905	1058.117188	3404.179199	1444.955688	16.488844
293.519592	1058.117188	3395.077148	1435.853638	16.163582
293.893280	1196.923950	3527.057129	1429.027100	9.960938
294.266907	1076.321289	3595.322754	1472.261963	15.718160
294.640533	989.851563	3638.557861	1576.935913	22.164948
295.014069	978.473938	3918.446777	1545.078613	19.272446
295.387604	1128.658325	4032.222900	1522.323364	13.557992
295.761078	1060.392700	4004.916504	1547.354126	16.537867
296.134552	1135.484863	4041.324951	1463.159912	11.276431
296.507996	1062.668213	4050.427002	1485.915039	14.166031
296.881378	1051.290649	4045.875977	1542.803101	16.413372
297.254730	1076.321289	4289.356934	1606.517700	16.501417
297.628021	962.545288	4607.929688	1590.588989	17.228464
298.001282	1058.117188	4612.480469	1652.028076	16.709347
298.374573	1026.259888	4805.899902	1611.068726	15.472607
298.747803	1101.352051	4644.337891	1592.864502	13.872831
299.121002	1042.188477	4323.489746	1495.017212	13.800280
299.494141	1119.556274	4143.723145	1535.976563	13.769752
299.867188	1074.045776	4107.314941	1517.772339	14.628658
300.240265	1078.596802	3941.202148	1458.608887	13.275043
300.613312	1071.770264	3820.599365	1520.047852	16.307947
300.986328	1089.974487	3818.323975	1467.710938	13.844870
301.359314	1087.698975	3704.547852	1429.027100	13.043479
301.732239	1085.423462	3734.129639	1463.159912	14.261169
302.105103	1014.882263	3781.915527	1583.762451	20.559210
302.477997	1119.556274	3706.823486	1497.292725	14.599824
302.850830	1094.525513	3761.435791	1508.670288	15.529011
303.223602	1053.566162	3806.946289	1529.150024	17.272728
303.596375	1042.188477	3831.977051	1499.568237	16.394783
303.969116	1094.525513	3649.935303	1549.629639	17.809439
304.341766	1099.076538	3552.087891	1454.057739	14.471242
304.714478	1089.974487	3536.159424	1490.466064	16.372087
305.087067	1089.974487	3533.883789	1465.435425	15.363130
305.459656	1069.494751	3645.384277	1451.782227	14.840988
305.832214	1076.321289	3563.465576	1460.884399	15.462034
306.204681	1162.791138	3554.363525	1388.067749	9.419603
306.577148	1030.810913	3506.577637	1458.608887	17.279415
306.949646	1085.423462	3713.649902	1438.129150	13.419912
307.322021	1074.045776	3668.139648	1429.027100	13.684214
307.694397	1039.912964	3579.394287	1495.017212	17.921148
308.066742	1069.494751	3595.322754	1413.098389	13.603603
308.439026	992.127075	3818.323975	1451.782227	16.264090
308.811279	1146.862427	3761.435791	1410.822876	10.095737
309.183502	1019.433350	3948.028564	1456.333252	14.918412
309.555695	983.024963	3954.855225	1479.088501	16.692188
309.927887	1033.086426	3991.263428	1454.057739	14.230768
310.299988	1121.831787	4070.906738	1515.496826	13.348763
310.672058	1103.627563	4064.080078	1508.670288	13.681784
311.044128	1069.494751	4239.295410	1549.629639	15.147162
311.416168	1092.250000	4255.224121	1601.966675	16.115107
311.788147	1085.423462	4159.651855	1495.017212	13.323464
312.160065	1124.107300	4089.110840	1435.853638	10.514198
312.531982	1096.801025	4123.243652	1497.292725	13.233084
312.903870	1089.974487	3954.855225	1485.915039	13.820489
313.275696	1019.433350	3893.416016	1460.884399	15.360254
313.647491	1037.637451	4004.916504	1492.741699	15.337426
314.019318	1153.689087	3763.711426	1435.853638	10.810809
314.391022	1044.463989	3765.986816	1419.924927	13.795986
314.762726	1046.739624	3913.895752	1485.915039	15.317456
315.134369	1074.045776	4023.120850	1495.017212	14.274693
315.505981	1089.974487	4287.081055	1444.955688	11.103203
315.877594	1037.637451	4321.213867	1465.435425	13.028416
316.249146	1099.076538	4127.794922	1467.710938	12.171301
316.620636	1030.810913	3927.548828	1474.537476	15.318148
316.992157	1105.903076	3809.221924	1438.129150	12.289563
317.363586	1035.361938	3836.528076	1442.680176	14.541024
317.735016	1089.974487	3690.894775	1353.934937	10.148732
318.106354	1055.841675	3781.915527	1390.343262	12.270452
318.477722	1044.463989	3784.191162	1406.271851	13.205982
