Jaz Data File
++++++++++++++++++++++++++++++++++++
Date: Wed Feb 07 06:35:21 2024
User: jaz
Dark Spectrum Present: Yes
Reference Spectrum Present: Yes
Processed Spectrum Present: Yes
Spectrometers: JAZA3692
Integration Time (usec): 40000 (JAZA3692)
Spectra Averaged: 1 (JAZA3692)
Boxcar Smoothing: 0 (JAZA3692)
Correct for Electrical Dark: No (JAZA3692)
Strobe/Lamp Enabled: Yes (JAZA3692)
Correct for Detector Non-linearity: No (JAZA3692)
Correct for Stray Light: No (JAZA3692)
Number of Pixels in Processed Spectrum: 2048
>>>>>Begin Processed Spectral Data<<<<<
W	D	R	S	P
190.244385	0.000000	0.000000	0.000000	0.000000
190.627136	0.000000	0.000000	0.000000	0.000000
191.009842	1424.476074	1381.241089	1290.220337	310.525696
191.392532	1344.832764	1360.761475	1276.567139	-428.569672
191.775177	1369.863525	1378.965576	1276.567139	-1025.004028
192.157791	1410.822876	1438.129150	1351.659302	-216.666595
192.540390	1367.588013	1419.924927	1335.730713	-60.869656
192.922943	1408.547363	1406.271851	1360.761475	2100.005371
193.305481	1335.730713	1406.271851	1328.904175	-9.677386
193.687958	1381.241089	1431.302612	1356.210449	-49.999756
194.070419	1347.108276	1358.485962	1276.567139	-619.995483
194.452866	1447.231201	1442.680176	1360.761475	1900.005371
194.835251	1369.863525	1392.618774	1342.557251	-119.999893
195.217621	1367.588013	1344.832764	1376.690063	-39.999786
195.599960	1438.129150	1388.067749	1285.669312	304.545685
195.982254	1456.333252	1442.680176	1278.842651	1300.004517
196.364517	1490.466064	1365.312500	1319.802124	136.363632
196.746750	1449.506714	1429.027100	1328.904175	588.890686
197.128952	1390.343262	1353.934937	1338.006226	143.750183
197.511139	1444.955688	1456.333252	1340.281738	-920.003235
197.893280	1374.414551	1372.139038	1310.699951	2800.010742
198.275391	1399.445313	1340.281738	1385.792114	23.077034
198.657471	1410.822876	1392.618774	1303.873413	587.502014
199.039520	1394.894287	1431.302612	1367.588013	-75.000084
199.421539	1403.996338	1419.924927	1340.281738	-400.001526
199.803513	1435.853638	1440.404663	1310.699951	-2750.010742
200.185471	1406.271851	1381.241089	1351.659302	218.181732
200.567383	1385.792114	1429.027100	1317.526489	-157.894409
200.949265	1456.333252	1431.302612	1376.690063	318.182800
201.331131	1392.618774	1449.506714	1317.526489	-132.000366
201.712967	1378.965576	1401.720825	1317.526489	-269.999634
202.094742	1442.680176	1435.853638	1299.322388	2100.007080
202.476517	1401.720825	1458.608887	1344.832764	-100.000000
202.858231	1408.547363	1378.965576	1317.526489	307.692261
203.239944	1415.373901	1392.618774	1315.250977	440.001617
203.621582	1376.690063	1472.261963	1253.812012	-128.571320
204.003235	1331.179688	1367.588013	1331.179688	0.000000
204.384827	1328.904175	1444.955688	1344.832764	13.725447
204.766388	1369.863525	1438.129150	1276.567139	-136.666718
205.147934	1351.659302	1447.231201	1274.291626	-80.952324
205.529449	1392.618774	1433.578125	1331.179688	-150.000153
205.910904	1444.955688	1460.884399	1310.699951	-842.853760
206.292343	1360.761475	1476.812988	1262.914063	-84.313774
206.673767	1429.027100	1413.098389	1340.281738	557.140869
207.055115	1456.333252	1390.343262	1381.241089	113.793266
207.436462	1403.996338	1431.302612	1338.006226	-241.666473
207.817780	1431.302612	1390.343262	1331.179688	244.444611
208.199051	1358.485962	1463.159912	1326.628662	-30.434793
208.580307	1424.476074	1422.200562	1274.291626	6600.026855
208.961517	1388.067749	1454.057739	1262.914063	-189.655563
209.342712	1440.404663	1431.302612	1287.944824	1675.005371
209.723846	1390.343262	1463.159912	1369.863525	-28.125072
210.104965	1403.996338	1388.067749	1328.904175	471.430115
210.486069	1426.751587	1447.231201	1303.873413	-600.002380
210.867111	1383.516602	1456.333252	1315.250977	-93.750023
211.248123	1385.792114	1390.343262	1281.118164	-2299.946289
211.629120	1385.792114	1424.476074	1328.904175	-147.058212
212.010071	1456.333252	1474.537476	1365.312500	-499.997986
212.390991	1406.271851	1378.965576	1260.638550	533.332764
212.771881	1349.383789	1397.169800	1260.638550	-185.713852
213.152756	1401.720825	1438.129150	1338.006226	-175.000076
213.533569	1392.618774	1417.649414	1301.597900	-363.637817
213.914368	1331.179688	1429.027100	1283.393677	-48.837276
214.295135	1383.516602	1410.822876	1285.669312	-358.332611
214.675858	1433.578125	1458.608887	1312.975464	-481.817780
215.056549	1417.649414	1415.373901	1242.434326	7700.026855
215.437225	1365.312500	1431.302612	1360.761475	-6.896526
215.817841	1458.608887	1413.098389	1367.588013	199.999725
216.198441	1360.761475	1392.618774	1338.006226	-71.428680
216.579025	1356.210449	1378.965576	1322.077637	-150.000534
216.959549	1360.761475	1408.547363	1369.863525	19.047571
217.340057	1413.098389	1442.680176	1392.618774	-69.230484
217.720535	1378.965576	1360.761475	1219.679199	875.002686
218.100967	1419.924927	1415.373901	1331.179688	1950.005371
218.481369	1340.281738	1435.853638	1297.046875	-45.238049
218.861740	1401.720825	1458.608887	1358.485962	-75.999886
219.242065	1424.476074	1367.588013	1281.118164	251.999985
219.622391	1338.006226	1510.945801	1310.699951	-15.789489
220.002670	1358.485962	1447.231201	1285.669312	-82.051331
220.382919	1338.006226	1365.312500	1347.108276	33.333183
220.763123	1381.241089	1479.088501	1353.934937	-27.906872
221.143295	1378.965576	1358.485962	1283.393677	466.668457
221.523453	1363.036987	1399.445313	1372.139038	24.999916
221.903549	1406.271851	1485.915039	1347.108276	-74.285789
222.283630	1312.975464	1469.986450	1374.414551	39.130440
222.663696	1401.720825	1435.853638	1262.914063	-406.666656
223.043701	1376.690063	1385.792114	1294.771362	-900.002686
223.423676	1353.934937	1488.190552	1269.740601	-62.711967
223.803635	1381.241089	1472.261963	1253.812012	-139.999832
224.183548	1394.894287	1442.680176	1278.842651	-242.857544
224.563431	1438.129150	1431.302612	1297.046875	2066.673828
224.943283	1419.924927	1451.782227	1367.588013	-164.285461
225.323105	1388.067749	1372.139038	1274.291626	714.283325
225.702881	1442.680176	1449.506714	1312.975464	-1900.007202
226.082642	1326.628662	1465.435425	1272.016113	-39.344299
226.462357	1374.414551	1458.608887	1281.118164	-110.810760
226.842041	1303.873413	1451.782227	1322.077637	12.307734
227.221695	1326.628662	1467.710938	1308.424438	-12.903268
227.601318	1388.067749	1417.649414	1333.455200	-184.616211
227.980911	1419.924927	1488.190552	1324.353149	-139.999863
228.360474	1397.169800	1510.945801	1333.455200	-56.000034
228.739990	1374.414551	1508.670288	1283.393677	-67.796638
229.119476	1372.139038	1504.119263	1344.832764	-20.689671
229.498932	1403.996338	1604.242188	1331.179688	-36.363625
229.878372	1460.884399	1599.691162	1319.802124	-101.639336
230.257736	1358.485962	1702.089600	1317.526489	-11.920559
230.637115	1465.435425	1679.334351	1258.363037	-96.808525
231.016449	1456.333252	1658.854614	1249.260864	-102.247185
231.395737	1363.036987	1599.691162	1306.148926	-24.038479
231.774994	1419.924927	1561.007324	1290.220337	-91.935349
232.154221	1449.506714	1608.793213	1349.383789	-62.857132
232.533417	1406.271851	1583.762451	1374.414551	-17.948725
232.912582	1401.720825	1567.833862	1308.424438	-56.164398
233.291702	1338.006226	1581.486938	1297.046875	-16.822420
233.670792	1374.414551	1611.068726	1322.077637	-22.115356
234.049866	1419.924927	1615.619751	1349.383789	-36.046501
234.428894	1413.098389	1604.242188	1312.975464	-52.380943
234.807892	1351.659302	1495.017212	1278.842651	-50.793606
235.186874	1285.669312	1524.598877	1342.557251	23.809502
235.565781	1460.884399	1601.966675	1269.740601	-135.483917
235.944687	1383.516602	1601.966675	1349.383789	-15.624995
236.323547	1397.169800	1622.446289	1294.771362	-45.454559
236.702377	1383.516602	1665.681274	1301.597900	-29.032232
237.081177	1381.241089	1581.486938	1331.179688	-24.999969
237.459946	1372.139038	1706.640625	1283.393677	-26.530624
237.838669	1422.200562	1615.619751	1319.802124	-52.941200
238.217361	1381.241089	1608.793213	1344.832764	-15.999993
238.596039	1363.036987	1670.232300	1237.883301	-40.740753
238.974670	1385.792114	1622.446289	1342.557251	-18.269217
239.353271	1344.832764	1674.783325	1297.046875	-14.482742
239.731842	1347.108276	1611.068726	1335.730713	-4.310329
240.110367	1383.516602	1704.365112	1349.383789	-10.638295
240.488876	1356.210449	1722.569214	1328.904175	-7.453424
240.867340	1458.608887	1806.763550	1308.424438	-43.137280
241.245789	1401.720825	1818.141113	1376.690063	-6.010937
241.624176	1456.333252	1804.488037	1333.455200	-35.294086
242.002548	1394.894287	1904.610962	1328.904175	-12.946430
242.380890	1415.373901	1902.335449	1342.557251	-14.953265
242.759186	1356.210449	1943.294800	1308.424438	-8.139547
243.137451	1356.210449	2029.764526	1378.965576	3.378367
243.515686	1331.179688	2123.060791	1415.373901	10.632178
243.893890	1310.699951	2204.979736	1347.108276	4.071246
244.272049	1495.017212	2209.530762	1349.383789	-20.382177
244.650192	1447.231201	2054.795166	1324.353149	-20.224710
245.028290	1426.751587	2029.764526	1312.975464	-18.867941
245.406357	1403.996338	1925.090576	1301.597900	-19.650656
245.784393	1394.894287	1904.610962	1228.781250	-32.589287
246.162384	1388.067749	1925.090576	1324.353149	-11.864411
246.540359	1385.792114	2029.764526	1406.271851	3.180219
246.918289	1403.996338	2134.438477	1415.373901	1.557627
247.296204	1378.965576	2218.632813	1429.027100	5.962067
247.674057	1394.894287	2473.491211	1388.067749	-0.632909
248.051895	1383.516602	2769.308838	1422.200562	2.791469
248.429703	1376.690063	2805.717041	1458.608887	5.732490
248.807465	1315.250977	2810.268311	1467.710938	10.197872
249.185196	1392.618774	2582.716064	1472.261963	6.692158
249.562897	1340.281738	2416.603027	1476.812988	12.684990
249.940567	1367.588013	2341.510986	1426.751587	6.074769
250.318192	1419.924927	2214.081787	1417.649414	-0.286532
250.695801	1399.445313	2157.193604	1374.414551	-3.303308
251.073349	1449.506714	2066.172852	1415.373901	-5.535056
251.450882	1392.618774	1972.876587	1442.680176	8.627441
251.828400	1406.271851	2020.662476	1458.608887	8.518528
252.205872	1358.485962	2107.132324	1358.485962	0.000000
252.583313	1378.965576	2118.509766	1408.547363	4.000003
252.960693	1381.241089	2164.020264	1397.169800	2.034892
253.338074	1374.414551	2234.561523	1367.588013	-0.793648
253.715408	1415.373901	2216.357178	1458.608887	5.397739
254.092682	1360.761475	2091.203613	1353.934937	-0.934576
254.469955	1390.343262	2093.479248	1369.863525	-2.912628
254.847198	1369.863525	2000.182739	1347.108276	-3.610115
255.224365	1422.200562	1991.080688	1397.169800	-4.400006
255.601563	1408.547363	1950.121338	1381.241089	-5.042021
255.978683	1413.098389	2047.968750	1417.649414	0.716843
256.355743	1424.476074	1961.498901	1415.373901	-1.694932
256.732819	1390.343262	2043.417725	1397.169800	1.045292
257.109894	1349.383789	2043.417725	1374.414551	3.606562
257.486877	1415.373901	2004.733887	1299.322388	-19.691109
257.863831	1426.751587	2009.284912	1438.129150	1.953118
258.240753	1422.200562	2150.367188	1390.343262	-4.375001
258.617645	1374.414551	2273.245361	1456.333252	9.113917
258.994507	1444.955688	2316.480225	1410.822876	-3.916449
259.371307	1349.383789	2423.429688	1401.720825	4.872886
259.748108	1372.139038	2491.695313	1397.169800	2.235775
260.124878	1394.894287	2764.757813	1392.618774	-0.166112
260.501617	1347.108276	3053.749023	1408.547363	3.600001
260.878296	1390.343262	3258.545898	1488.190552	5.237509
261.254944	1394.894287	3358.668701	1524.598877	6.604862
261.631561	1415.373901	3358.668701	1513.221313	5.035130
262.008179	1372.139038	2833.023438	1467.710938	6.542058
262.384735	1388.067749	2760.206787	1383.516602	-0.331683
262.761261	1422.200562	2512.175049	1463.159912	3.757827
263.137695	1406.271851	2389.296875	1374.414551	-3.240741
263.514191	1369.863525	2512.175049	1406.271851	3.187250
263.890594	1390.343262	2446.184814	1333.455200	-5.387936
264.267029	1397.169800	2352.888428	1401.720825	0.476189
264.643341	1306.148926	2468.940186	1394.894287	7.632097
265.019653	1331.179688	2371.092773	1431.302612	9.628009
265.395935	1397.169800	2255.041016	1426.751587	3.448278
265.772217	1392.618774	2248.214600	1365.312500	-3.191492
266.148407	1410.822876	2357.439453	1369.863525	-4.326921
266.524597	1378.965576	2423.429688	1456.333252	7.407404
266.900726	1347.108276	2375.643799	1340.281738	-0.663714
267.276855	1326.628662	2600.920166	1413.098389	6.785710
267.652924	1340.281738	2646.430664	1456.333252	8.885014
268.028992	1376.690063	2755.655762	1429.027100	3.795383
268.404999	1403.996338	2691.941162	1442.680176	3.003532
268.781006	1417.649414	2673.737061	1472.261963	4.347829
269.156921	1381.241089	2594.093750	1419.924927	3.189492
269.532837	1383.516602	2657.808350	1429.027100	3.571435
269.908661	1338.006226	2671.461426	1415.373901	5.802045
270.284546	1290.220337	2589.542725	1433.578125	11.033273
270.660339	1410.822876	2534.930176	1429.027100	1.619438
271.036133	1303.873413	2685.114502	1390.343262	6.260301
271.411835	1347.108276	2833.023438	1406.271851	3.981625
271.787537	1351.659302	2939.972900	1392.618774	2.578803
272.163239	1444.955688	3160.698486	1372.139038	-4.244030
272.538849	1401.720825	3340.464600	1506.394775	5.399061
272.914459	1340.281738	3217.586426	1458.608887	6.303034
273.290070	1344.832764	3206.208740	1454.057739	5.867970
273.665588	1338.006226	3024.167236	1435.853638	5.802969
274.041046	1390.343262	3005.962891	1440.404663	3.098588
274.416565	1392.618774	3049.197754	1378.965576	-0.824180
274.791962	1419.924927	3021.891602	1429.027100	0.568187
275.167389	1351.659302	2812.543701	1456.333252	7.165108
275.542755	1426.751587	2789.788574	1406.271851	-1.502508
275.918060	1467.710938	2835.298828	1403.996338	-4.658904
276.293365	1472.261963	2862.605225	1447.231201	-1.800330
276.668640	1419.924927	2899.013428	1394.894287	-1.692302
277.043854	1326.628662	2978.656738	1442.680176	7.024791
277.419037	1365.312500	3010.513916	1372.139038	0.414936
277.794189	1306.148926	3030.993652	1406.271851	5.804750
278.169312	1417.649414	3012.789551	1413.098389	-0.285306
278.544373	1408.547363	3040.095703	1495.017212	5.299864
278.919464	1353.934937	2967.279053	1440.404663	5.359658
279.294464	1344.832764	2942.248291	1426.751587	5.128210
279.669464	1360.761475	2951.350586	1431.302612	4.434906
280.044403	1340.281738	2942.248291	1481.364014	8.806818
280.419312	1312.975464	3003.687500	1449.506714	8.075370
280.794189	1435.853638	3099.259277	1513.221313	4.651161
281.169037	1344.832764	3028.718262	1426.751587	4.864869
281.543854	1438.129150	3203.933350	1495.017212	3.221652
281.918671	1413.098389	3176.626953	1485.915039	4.129032
282.293365	1417.649414	3338.188965	1542.803101	6.516590
282.668091	1376.690063	3511.128662	1388.067749	0.533053
283.042786	1399.445313	3572.567627	1529.150024	5.968588
283.417419	1301.597900	3508.853027	1488.190552	8.453606
283.792053	1381.241089	3545.261475	1540.527588	7.360674
284.166595	1394.894287	3297.229736	1526.874512	6.937800
284.541138	1360.761475	3399.628174	1515.496826	7.589283
284.915619	1431.302612	3244.892578	1456.333252	1.380171
285.290100	1335.730713	3456.516113	1531.425537	9.227469
285.664520	1431.302612	3490.648926	1479.088501	2.320440
286.038940	1408.547363	3540.710449	1556.456177	6.937031
286.413300	1356.210449	3765.986816	1554.180664	8.215294
286.787628	1394.894287	3884.313965	1576.935913	7.312613
287.161896	1333.455200	3868.385254	1613.344238	11.041292
287.536194	1344.832764	3836.528076	1517.772339	6.940639
287.910400	1308.424438	3754.609375	1549.629639	9.860464
288.284607	1372.139038	3606.700439	1613.344238	10.794296
288.658752	1385.792114	3497.475586	1608.793213	10.560347
289.032867	1378.965576	3376.872803	1597.415649	10.933945
289.406921	1342.557251	3486.097900	1656.579102	14.649681
289.781006	1415.373901	3481.546875	1611.068726	9.471368
290.154999	1454.057739	3549.812500	1606.517700	7.274704
290.529022	1422.200562	3620.353516	1652.028076	10.455483
290.902954	1438.129150	3756.884766	1615.619751	7.654562
291.276825	1317.526489	3884.313965	1670.232300	13.741138
291.650757	1363.036987	3973.059326	1770.355225	15.605928
292.024597	1403.996338	3913.895752	1781.732788	15.049864
292.398407	1397.169800	3831.977051	1749.875488	14.485981
292.772156	1399.445313	3802.395264	1708.916138	12.878788
293.145905	1388.067749	3561.189941	1724.844727	15.497379
293.519592	1349.383789	3577.118652	1647.477051	13.381002
293.893280	1406.271851	3611.251465	1736.222412	14.963883
294.266907	1397.169800	3763.711426	1674.783325	11.730769
294.640533	1410.822876	3759.160400	1790.834839	16.182171
295.014069	1344.832764	3957.130615	1790.834839	17.073172
295.387604	1454.057739	4148.274414	1786.283813	12.331081
295.761078	1392.618774	4173.305176	1827.243164	15.630111
296.134552	1467.710938	4098.212891	1872.753662	15.397925
296.507996	1333.455200	4123.243652	1806.763550	16.965742
296.881378	1408.547363	4114.141602	1881.855713	17.493692
297.254730	1403.996338	4398.581543	1913.713013	17.021278
297.628021	1403.996338	4603.378418	1945.570313	16.927456
298.001282	1367.588013	4808.175293	1929.641602	16.335978
298.374573	1390.343262	4683.021973	2036.591064	19.626810
298.747803	1458.608887	4566.970215	1902.335449	14.275257
299.121002	1383.516602	4371.275391	1956.947876	19.192690
299.494141	1376.690063	4202.886719	1875.029175	17.632853
299.867188	1385.792114	4150.549805	1941.019287	20.082308
300.240265	1417.649414	4014.018799	1843.171875	16.389133
300.613312	1331.179688	3847.905762	1802.212524	18.716095
300.986328	1322.077637	3847.905762	1838.620850	20.450449
301.359314	1372.139038	3841.079102	1777.181763	16.405531
301.732239	1422.200562	3804.670898	1761.253052	14.231133
302.105103	1378.965576	3895.691650	1786.283813	16.184448
302.477997	1365.312500	3879.762939	1777.181763	16.380091
302.850830	1438.129150	3998.090088	1818.141113	14.844444
303.223602	1422.200562	3809.221924	1720.293701	12.488079
303.596375	1319.802124	3804.670898	1865.927002	21.978018
303.969116	1438.129150	3643.108887	1777.181763	15.376677
304.341766	1417.649414	3606.700439	1738.497925	14.656968
304.714478	1383.516602	3722.751953	1774.906250	16.731522
305.087067	1378.965576	3645.384277	1688.436401	13.654618
305.459656	1383.516602	3752.333740	1797.661377	17.483189
305.832214	1347.108276	3581.669678	1758.977539	18.431770
306.204681	1335.730713	3604.425049	1847.722900	22.567703
306.577148	1358.485962	3663.588379	1781.732788	18.361301
306.949646	1335.730713	3711.374512	1779.457275	18.678160
307.322021	1419.924927	3709.098877	1731.671387	13.618296
307.694397	1424.476074	3597.598389	1772.630737	16.020943
308.066742	1365.312500	3750.058350	1747.599976	16.030533
308.439026	1356.210449	3775.089111	1749.875488	16.274691
308.811279	1374.414551	3841.079102	1770.355225	16.051662
309.183502	1356.210449	4041.324951	1813.590088	17.033897
309.555695	1460.884399	3975.334961	1788.559326	13.031671
309.927887	1335.730713	4014.018799	1852.273926	19.286320
310.299988	1381.241089	4125.519043	1888.682251	18.490881
310.672058	1440.404663	4164.203125	1861.375977	15.455304
311.044128	1308.424438	4136.896973	1815.865601	17.940466
311.416168	1399.445313	4161.927734	1904.610962	18.286655
311.788147	1392.618774	4209.713379	1875.029175	17.124393
312.160065	1410.822876	4166.478516	1806.763550	14.368292
312.531982	1312.975464	4093.661865	1877.304688	20.294601
312.903870	1338.006226	4011.743164	1813.590088	17.787235
313.275696	1431.302612	3825.150391	1749.875488	13.307984
313.647491	1438.129150	3875.211914	1781.732788	14.098973
314.019318	1419.924927	3984.437012	1774.906250	13.842060
314.391022	1388.067749	3850.181152	1784.008301	16.081329
314.762726	1342.557251	4050.427002	1881.855713	19.915968
315.134369	1347.108276	4061.804688	1729.395752	14.082146
315.505981	1308.424438	4105.039551	1811.314575	17.982100
315.877594	1415.373901	4148.274414	1834.069824	15.320570
316.249146	1351.659302	4136.896973	1845.447388	17.728758
316.620636	1435.853638	3959.406250	1847.722900	16.321009
316.992157	1340.281738	3886.589600	1756.702026	16.353886
317.363586	1292.495850	3756.884766	1743.048950	18.282549
317.735016	1399.445313	3786.466553	1733.946899	14.013348
