Jaz Data File
++++++++++++++++++++++++++++++++++++
Date: Wed Feb 07 06:37:19 2024
User: jaz
Dark Spectrum Present: Yes
Reference Spectrum Present: Yes
Processed Spectrum Present: Yes
Spectrometers: JAZA3692
Integration Time (usec): 40000 (JAZA3692)
Spectra Averaged: 1 (JAZA3692)
Boxcar Smoothing: 0 (JAZA3692)
Correct for Electrical Dark: No (JAZA3692)
Strobe/Lamp Enabled: Yes (JAZA3692)
Correct for Detector Non-linearity: No (JAZA3692)
Correct for Stray Light: No (JAZA3692)
Number of Pixels in Processed Spectrum: 2048
>>>>>Begin Processed Spectral Data<<<<<
W	D	R	S	P
190.244385	0.000000	0.000000	0.000000	0.000000
190.627136	0.000000	0.000000	0.000000	0.000000
191.009842	1221.954712	1244.709839	1274.291626	230.000534
191.392532	1335.730713	1244.709839	1267.465088	74.999969
191.775177	1317.526489	1301.597900	1324.353149	-42.857910
192.157791	1219.679199	1292.495850	1333.455200	156.249985
192.540390	1322.077637	1281.118164	1269.740601	127.777611
192.922943	1274.291626	1312.975464	1292.495850	47.058990
193.305481	1333.455200	1312.975464	1246.985352	422.221497
193.687958	1281.118164	1272.016113	1308.424438	-300.001343
194.070419	1290.220337	1285.669312	1260.638550	650.002686
194.452866	1244.709839	1265.189575	1331.179688	422.221497
194.835251	1290.220337	1306.148926	1297.046875	42.857143
195.217621	1299.322388	1349.383789	1340.281738	81.818230
195.599960	1312.975464	1301.597900	1262.914063	440.001068
195.982254	1297.046875	1297.046875	1335.730713	0.000000
196.364517	1297.046875	1310.699951	1237.883301	-433.335114
196.746750	1326.628662	1365.312500	1265.189575	-158.823654
197.128952	1290.220337	1353.934937	1265.189575	-39.285755
197.511139	1328.904175	1326.628662	1231.056763	4300.016113
197.893280	1331.179688	1335.730713	1301.597900	-650.002686
198.275391	1310.699951	1312.975464	1251.536499	-2600.005371
198.657471	1276.567139	1297.046875	1201.474976	-366.665680
199.039520	1244.709839	1349.383789	1262.914063	17.391359
199.421539	1347.108276	1331.179688	1276.567139	442.858673
199.803513	1256.087524	1285.669312	1299.322388	146.153656
200.185471	1253.812012	1358.485962	1281.118164	26.086864
200.567383	1335.730713	1272.016113	1244.709839	142.857178
200.949265	1283.393677	1287.944824	1308.424438	549.987915
201.331131	1326.628662	1335.730713	1246.985352	-875.004028
201.712967	1299.322388	1315.250977	1240.158813	-371.430115
202.094742	1235.607788	1308.424438	1308.424438	100.000000
202.476517	1233.332275	1278.842651	1272.016113	85.000038
202.858231	1258.363037	1281.118164	1274.291626	70.000000
203.239944	1301.597900	1292.495850	1294.771362	75.000000
203.621582	1256.087524	1328.904175	1274.291626	24.999916
204.003235	1363.036987	1285.669312	1283.393677	102.941322
204.384827	1276.567139	1292.495850	1312.975464	228.570450
204.766388	1281.118164	1274.291626	1253.812012	400.000000
205.147934	1301.597900	1292.495850	1290.220337	125.000000
205.529449	1403.996338	1312.975464	1353.934937	54.999912
205.910904	1283.393677	1258.363037	1283.393677	-0.000000
206.292343	1210.577026	1322.077637	1210.577026	0.000000
206.673767	1308.424438	1281.118164	1315.250977	-24.999887
207.055115	1242.434326	1372.139038	1285.669312	33.333397
207.436462	1328.904175	1326.628662	1283.393677	2000.010742
207.817780	1303.873413	1399.445313	1226.505737	-80.952324
208.199051	1251.536499	1328.904175	1265.189575	17.647003
208.580307	1242.434326	1390.343262	1297.046875	36.923088
208.961517	1267.465088	1306.148926	1221.954712	-117.647003
209.342712	1292.495850	1312.975464	1292.495850	0.000000
209.723846	1242.434326	1221.954712	1190.097412	255.556152
210.104965	1322.077637	1285.669312	1260.638550	168.750107
210.486069	1267.465088	1306.148926	1246.985352	-52.941326
210.867111	1281.118164	1226.505737	1315.250977	-62.500084
211.248123	1301.597900	1299.322388	1219.679199	3600.010742
211.629120	1322.077637	1319.802124	1294.771362	1200.005371
212.010071	1274.291626	1338.006226	1262.914063	-17.857075
212.390991	1262.914063	1283.393677	1235.607788	-133.333923
212.771881	1294.771362	1351.659302	1281.118164	-24.000164
213.152756	1319.802124	1374.414551	1269.740601	-91.666908
213.533569	1306.148926	1333.455200	1269.740601	-133.333191
213.914368	1226.505737	1369.863525	1283.393677	39.682491
214.295135	1267.465088	1317.526489	1290.220337	45.454678
214.675858	1249.260864	1365.312500	1317.526489	58.823494
215.056549	1322.077637	1328.904175	1260.638550	-900.003601
215.437225	1285.669312	1299.322388	1294.771362	66.666664
215.817841	1276.567139	1360.761475	1274.291626	-2.702691
216.198441	1358.485962	1340.281738	1258.363037	549.998352
216.579025	1353.934937	1385.792114	1326.628662	-85.714668
216.959549	1299.322388	1292.495850	1326.628662	-400.001801
217.340057	1278.842651	1344.832764	1278.842651	0.000000
217.720535	1301.597900	1347.108276	1294.771362	-14.999960
218.100967	1294.771362	1301.597900	1265.189575	-433.335114
218.481369	1317.526489	1335.730713	1267.465088	-274.998840
218.861740	1344.832764	1292.495850	1235.607788	208.695862
219.242065	1256.087524	1228.781250	1246.985352	33.333630
219.622391	1256.087524	1303.873413	1274.291626	38.095142
220.002670	1274.291626	1317.526489	1242.434326	-73.684288
220.382919	1344.832764	1228.781250	1276.567139	58.823555
220.763123	1308.424438	1322.077637	1276.567139	-233.332138
221.143295	1356.210449	1322.077637	1274.291626	240.000214
221.523453	1269.740601	1340.281738	1256.087524	-19.354773
221.903549	1251.536499	1356.210449	1283.393677	30.434675
222.283630	1297.046875	1333.455200	1269.740601	-75.000084
222.663696	1317.526489	1319.802124	1265.189575	-2299.882080
223.043701	1206.026001	1333.455200	1203.750488	-1.785707
223.423676	1224.230225	1378.965576	1322.077637	63.235332
223.803635	1244.709839	1347.108276	1265.189575	20.000048
224.183548	1260.638550	1285.669312	1294.771362	136.363464
224.563431	1260.638550	1283.393677	1258.363037	-10.000000
224.943283	1322.077637	1335.730713	1326.628662	33.333332
225.323105	1246.985352	1353.934937	1306.148926	55.319126
225.702881	1260.638550	1308.424438	1294.771362	71.428642
226.082642	1242.434326	1265.189575	1267.465088	109.999947
226.462357	1365.312500	1383.516602	1206.026001	-875.003357
226.842041	1219.679199	1369.863525	1199.199463	-13.636400
227.221695	1319.802124	1315.250977	1276.567139	949.979858
227.601318	1306.148926	1406.271851	1265.189575	-40.909061
227.980911	1276.567139	1463.159912	1267.465088	-4.878030
228.360474	1287.944824	1383.516602	1278.842651	-9.523913
228.739990	1283.393677	1440.404663	1294.771362	7.246427
229.119476	1285.669312	1408.547363	1297.046875	9.259232
229.498932	1283.393677	1424.476074	1297.046875	9.677464
229.878372	1299.322388	1504.119263	1251.536499	-23.333309
230.257736	1262.914063	1515.496826	1258.363037	-1.801796
230.637115	1174.168701	1572.384888	1283.393677	27.428562
231.016449	1242.434326	1454.057739	1287.944824	21.505417
231.395737	1267.465088	1542.803101	1267.465088	0.000000
231.774994	1269.740601	1442.680176	1244.709839	-14.473703
232.154221	1276.567139	1476.812988	1196.923950	-39.772705
232.533417	1231.056763	1451.782227	1317.526489	39.175240
232.912582	1265.189575	1419.924927	1258.363037	-4.411751
233.291702	1299.322388	1392.618774	1283.393677	-17.073235
233.670792	1276.567139	1447.231201	1322.077637	26.666714
234.049866	1251.536499	1444.955688	1342.557251	47.058800
234.428894	1349.383789	1417.649414	1256.087524	-136.666534
234.807892	1292.495850	1410.822876	1244.709839	-40.384697
235.186874	1308.424438	1444.955688	1210.577026	-71.666679
235.565781	1203.750488	1504.119263	1233.332275	9.848490
235.944687	1274.291626	1490.466064	1272.016113	-1.052628
236.323547	1333.455200	1501.843750	1292.495850	-24.324308
236.702377	1287.944824	1481.364014	1253.812012	-17.647066
237.081177	1283.393677	1501.843750	1308.424438	11.458344
237.459946	1269.740601	1515.496826	1242.434326	-11.111122
237.838669	1265.189575	1535.976563	1274.291626	3.361332
238.217361	1206.026001	1565.558350	1358.485962	42.405075
238.596039	1244.709839	1515.496826	1265.189575	7.563043
238.974670	1299.322388	1561.007324	1249.260864	-19.130457
239.353271	1297.046875	1488.190552	1276.567139	-10.714315
239.731842	1244.709839	1533.701050	1340.281738	33.070866
240.110367	1308.424438	1488.190552	1285.669312	-12.658185
240.488876	1301.597900	1608.793213	1276.567139	-8.148159
240.867340	1356.210449	1590.588989	1246.985352	-46.602005
241.245789	1306.148926	1545.078613	1281.118164	-10.476204
241.624176	1303.873413	1508.670288	1353.934937	24.444477
242.002548	1297.046875	1706.640625	1283.393677	-3.333351
242.380890	1351.659302	1758.977539	1283.393677	-16.759777
242.759186	1272.016113	1736.222412	1308.424438	7.843135
243.137451	1303.873413	1904.610962	1246.985352	-9.469703
243.515686	1274.291626	1966.049927	1297.046875	3.289480
243.893890	1274.291626	2011.560425	1342.557251	9.259258
244.272049	1210.577026	1981.978638	1301.597900	11.799415
244.650192	1331.179688	1843.171875	1335.730713	0.888886
245.028290	1308.424438	1827.243164	1303.873413	-0.877190
245.406357	1190.097412	1699.814087	1328.904175	27.232141
245.784393	1272.016113	1692.987427	1303.873413	7.567570
246.162384	1308.424438	1756.702026	1294.771362	-3.045675
246.540359	1278.842651	1793.110352	1260.638550	-3.539810
246.918289	1208.301514	1822.692139	1353.934937	23.703718
247.296204	1338.006226	2052.519775	1347.108276	1.273881
247.674057	1294.771362	2245.938965	1408.547363	11.961720
248.051895	1338.006226	2393.847900	1374.414551	3.448275
248.429703	1347.108276	2443.909424	1328.904175	-1.659745
248.807465	1278.842651	2473.491211	1344.832764	5.523809
249.185196	1281.118164	2316.480225	1376.690063	9.230771
249.562897	1317.526489	2125.336426	1347.108276	3.661974
249.940567	1358.485962	2098.030273	1356.210449	-0.307691
250.318192	1312.975464	1972.876587	1397.169800	12.758629
250.695801	1317.526489	1986.529663	1315.250977	-0.340135
251.073349	1324.353149	1859.100464	1363.036987	7.234041
251.450882	1303.873413	1827.243164	1269.740601	-6.521739
251.828400	1276.567139	1879.580200	1344.832764	11.320754
252.205872	1221.954712	1790.834839	1342.557251	21.199991
252.583313	1269.740601	1900.059814	1335.730713	10.469316
252.960693	1226.505737	1938.743774	1351.659302	17.571873
253.338074	1303.873413	2045.693237	1353.934937	6.748475
253.715408	1287.944824	2077.550537	1406.271851	14.985584
254.092682	1319.802124	1945.570313	1256.087524	-10.181822
254.469955	1258.363037	1806.763550	1347.108276	16.182560
254.847198	1231.056763	1779.457275	1303.873413	13.278006
255.224365	1283.393677	1854.549438	1292.495850	1.593641
255.601563	1215.128052	1768.079712	1310.699951	17.283953
255.978683	1338.006226	1834.069824	1308.424438	-5.963305
256.355743	1260.638550	1818.141113	1306.148926	8.163259
256.732819	1240.158813	1906.886475	1374.414551	20.136518
257.109894	1301.597900	1829.518677	1360.761475	11.206903
257.486877	1267.465088	1920.539551	1390.343262	18.815338
257.863831	1276.567139	1934.192627	1347.108276	10.726643
258.240753	1326.628662	1943.294800	1397.169800	11.439114
258.617645	1303.873413	2029.764526	1356.210449	7.210040
258.994507	1251.536499	2118.509766	1349.383789	11.286079
259.371307	1274.291626	2184.500000	1399.445313	13.750004
259.748108	1292.495850	2286.898438	1351.659302	5.949648
260.124878	1212.852539	2493.970703	1376.690063	12.788635
260.501617	1315.250977	2760.206787	1390.343262	5.196857
260.878296	1294.771362	2919.493164	1469.986450	10.784313
261.254944	1301.597900	3056.024414	1476.812988	9.987029
261.631561	1262.914063	2933.146240	1426.751587	9.809266
262.008179	1347.108276	2657.808350	1479.088501	10.069445
262.384735	1290.220337	2484.868652	1367.588013	6.476188
262.761261	1278.842651	2275.520752	1378.965576	10.045663
263.137695	1281.118164	2311.929199	1310.699951	2.869758
263.514191	1206.026001	2141.265137	1333.455200	13.625306
263.890594	1219.679199	2107.132324	1315.250977	10.769219
264.267029	1265.189575	2141.265137	1369.863525	11.948050
264.643341	1251.536499	2145.816162	1322.077637	7.888040
265.019653	1333.455200	2111.683350	1301.597900	-4.093568
265.395935	1312.975464	2152.642578	1308.424438	-0.542004
265.772217	1256.087524	2045.693237	1322.077637	8.357350
266.148407	1281.118164	2045.693237	1344.832764	8.333335
266.524597	1281.118164	2079.825928	1353.934937	9.116823
266.900726	1237.883301	2286.898438	1372.139038	12.798265
267.276855	1322.077637	2352.888428	1310.699951	-1.103761
267.652924	1272.016113	2407.500977	1319.802124	4.208424
268.028992	1351.659302	2346.062012	1385.792114	3.432494
268.404999	1303.873413	2430.256104	1424.476074	10.707077
268.781006	1335.730713	2416.603027	1349.383789	1.263153
269.156921	1290.220337	2334.684326	1353.934937	6.100220
269.532837	1322.077637	2325.582275	1415.373901	9.297044
269.908661	1233.332275	2409.776611	1378.965576	12.379107
270.284546	1301.597900	2277.796387	1322.077637	2.097907
270.660339	1365.312500	2409.776611	1374.414551	0.871457
271.036133	1260.638550	2450.735840	1401.720825	11.854684
271.411835	1285.669312	2318.755615	1394.894287	10.572686
271.787537	1256.087524	2594.093750	1388.067749	9.863947
272.163239	1215.128052	2814.819336	1356.210449	8.819351
272.538849	1315.250977	2987.758789	1481.364014	9.931973
272.914459	1299.322388	2912.666504	1433.578125	8.321581
273.290070	1272.016113	2846.676514	1424.476074	9.682085
273.665588	1281.118164	2673.737061	1456.333252	12.581697
274.041046	1285.669312	2714.696289	1488.190552	14.171968
274.416565	1246.985352	2550.858887	1390.343262	10.994771
274.791962	1206.026001	2621.399902	1403.996338	13.987141
275.167389	1319.802124	2544.032227	1374.414551	4.460961
275.542755	1283.393677	2498.521729	1374.414551	7.490641
275.918060	1244.709839	2523.552490	1388.067749	11.209972
276.293365	1281.118164	2459.837891	1344.832764	5.405407
276.668640	1317.526489	2584.991699	1306.148926	-0.897663
277.043854	1272.016113	2546.307861	1328.904175	4.464289
277.419037	1260.638550	2687.390137	1356.210449	6.698566
277.794189	1287.944824	2716.971924	1369.863525	5.732481
278.169312	1217.403687	2714.696289	1458.608887	16.109423
278.544373	1294.771362	2682.839111	1392.618774	7.049181
278.919464	1322.077637	2537.205811	1297.046875	-2.059928
279.294464	1287.944824	2569.062988	1449.506714	12.611006
279.669464	1237.883301	2619.124512	1410.822876	12.520592
280.044403	1256.087524	2669.185791	1381.241089	8.856678
280.419312	1262.914063	2689.665527	1463.159912	14.035089
280.794189	1276.567139	2710.145264	1467.710938	13.333337
281.169037	1331.179688	2680.563477	1422.200562	6.745366
281.543854	1353.934937	2810.268311	1406.271851	3.593745
281.918671	1228.781250	2851.227539	1451.782227	13.744737
282.293365	1312.975464	2924.044189	1406.271851	5.790963
282.668091	1358.485962	3056.024414	1419.924927	3.619298
283.042786	1353.934937	3147.045166	1490.466064	7.614207
283.417419	1299.322388	3030.993652	1310.699951	0.657028
283.792053	1237.883301	3046.922363	1374.414551	7.547170
284.166595	1283.393677	2905.840088	1390.343262	6.591872
284.541138	1199.199463	2873.982666	1406.271851	12.364131
284.915619	1237.883301	2951.350586	1319.802124	4.780880
285.290100	1308.424438	3012.789551	1440.404663	7.743659
285.664520	1297.046875	3067.402100	1492.741699	11.053987
286.038940	1326.628662	3117.463379	1438.129150	6.226174
286.413300	1269.740601	3112.912354	1465.435425	10.617287
286.787628	1310.699951	3244.892578	1506.394775	10.117649
287.161896	1285.669312	3470.169189	1465.435425	8.229165
287.536194	1240.158813	3360.944336	1538.252075	14.055794
287.910400	1290.220337	3281.301025	1526.874512	11.885715
288.284607	1331.179688	3219.861816	1483.639526	8.072287
288.658752	1303.873413	3096.983887	1504.119263	11.167513
289.032867	1303.873413	2974.105713	1467.710938	9.809266
289.406921	1278.842651	2924.044189	1535.976563	15.629326
289.781006	1269.740601	3046.922363	1388.067749	6.658134
290.154999	1294.771362	3128.841064	1526.874512	12.655088
290.529022	1258.363037	3213.035400	1579.211426	16.414433
290.902954	1308.424438	3272.198975	1579.211426	13.789107
291.276825	1292.495850	3429.209961	1608.793213	14.802980
291.650757	1324.353149	3374.597412	1590.588989	12.985568
292.024597	1369.863525	3447.414063	1633.823975	12.705368
292.398407	1281.118164	3356.393066	1567.833862	13.815794
292.772156	1290.220337	3310.882813	1567.833862	13.738738
293.145905	1240.158813	3206.208740	1574.660400	17.013891
293.519592	1283.393677	3192.555664	1533.701050	13.110850
293.893280	1306.148926	3156.147461	1686.160889	20.541203
294.266907	1310.699951	3297.229736	1586.037964	13.860250
294.640533	1278.842651	3360.944336	1608.793213	15.846996
295.014069	1272.016113	3481.546875	1747.599976	21.524202
295.387604	1317.526489	3615.802490	1686.160889	16.039606
295.761078	1267.465088	3572.567627	1711.191650	19.249754
296.134552	1235.607788	3590.771729	1663.405762	18.164253
296.507996	1251.536499	3593.047363	1754.426514	21.477160
296.881378	1178.719727	3572.567627	1713.467163	22.338406
297.254730	1285.669312	3875.211914	1711.191650	16.432337
297.628021	1262.914063	4068.631104	1774.906250	18.248177
298.001282	1274.291626	4027.671875	1852.273926	20.991735
298.374573	1310.699951	4068.631104	1784.008301	17.161716
298.747803	1253.812012	3993.539063	1827.243164	20.930229
299.121002	1269.740601	3795.568604	1718.018188	17.747747
299.494141	1228.781250	3702.272461	1713.467163	19.595215
299.867188	1221.954712	3645.384277	1697.538574	19.624413
300.240265	1253.812012	3538.434814	1715.742676	20.219122
300.613312	1278.842651	3424.658691	1720.293701	20.572643
300.986328	1283.393677	3401.903564	1718.018188	20.515577
301.359314	1251.536499	3310.882813	1658.854614	19.779001
301.732239	1256.087524	3333.637939	1722.569214	22.453449
302.105103	1253.812012	3413.281250	1670.232300	19.283455
302.477997	1258.363037	3401.903564	1667.956787	19.108280
302.850830	1285.669312	3408.730225	1704.365112	19.721327
303.223602	1285.669312	3272.198975	1706.640625	21.191292
303.596375	1256.087524	3315.433838	1724.844727	22.762428
303.969116	1287.944824	3224.413086	1718.018188	22.209162
304.341766	1294.771362	3283.576416	1667.956787	18.764303
304.714478	1349.383789	3294.954102	1658.854614	15.906432
305.087067	1347.108276	3035.544678	1658.854614	18.463612
305.459656	1246.985352	3192.555664	1601.966675	18.245617
305.832214	1294.771362	3224.413086	1686.160889	20.283016
306.204681	1340.281738	3235.790527	1640.650513	15.846340
306.577148	1303.873413	3233.515137	1642.926025	17.570755
306.949646	1347.108276	3326.811523	1624.721802	14.022986
307.322021	1281.118164	3231.239502	1677.058838	20.303387
307.694397	1287.944824	3162.973877	1601.966675	16.747572
308.066742	1262.914063	3251.719238	1615.619751	17.734552
308.439026	1351.659302	3285.852051	1711.191650	18.588238
308.811279	1310.699951	3404.179199	1624.721802	14.999998
309.183502	1253.812012	3606.700439	1677.058838	17.988394
309.555695	1235.607788	3622.629150	1756.702026	21.830313
309.927887	1215.128052	3608.976074	1724.844727	21.292774
310.299988	1237.883301	3547.536865	1731.671387	21.379314
310.672058	1333.455200	3574.843262	1654.303589	14.314717
311.044128	1219.679199	3684.068115	1752.151001	21.606646
311.416168	1272.016113	3693.170166	1697.538574	17.575191
311.788147	1253.812012	3618.078125	1736.222412	20.404234
312.160065	1187.821899	3715.925537	1761.253052	22.682266
312.531982	1328.904175	3595.322754	1718.018188	17.168674
312.903870	1315.250977	3613.527100	1647.477051	14.455446
313.275696	1301.597900	3449.689453	1688.436401	18.008474
313.647491	1276.567139	3413.281250	1743.048950	21.831738
314.019318	1342.557251	3360.944336	1649.752563	15.219841
314.391022	1328.904175	3397.352539	1702.089600	18.041807
314.762726	1328.904175	3574.843262	1738.497925	18.237083
315.134369	1260.638550	3502.026611	1727.120239	20.812178
315.505981	1267.465088	3606.700439	1761.253052	21.108948
315.877594	1249.260864	3718.200928	1672.507813	17.142860
316.249146	1315.250977	3611.251465	1683.885376	16.055502
316.620636	1267.465088	3583.945313	1704.365112	18.860512
316.992157	1276.567139	3338.188965	1661.130127	18.653421
317.363586	1240.158813	3388.250488	1624.721802	17.902540
317.735016	1283.393677	3301.780762	1658.854614	18.602028
318.106354	1274.291626	3269.923340	1645.201538	18.586090
