Jaz Data File
++++++++++++++++++++++++++++++++++++
Date: Wed Feb 07 06:37:32 2024
User: jaz
Dark Spectrum Present: Yes
Reference Spectrum Present: Yes
Processed Spectrum Present: Yes
Spectrometers: JAZA3692
Integration Time (usec): 40000 (JAZA3692)
Spectra Averaged: 1 (JAZA3692)
Boxcar Smoothing: 0 (JAZA3692)
Correct for Electrical Dark: No (JAZA3692)
Strobe/Lamp Enabled: Yes (JAZA3692)
Correct for Detector Non-linearity: No (JAZA3692)
Correct for Stray Light: No (JAZA3692)
Number of Pixels in Processed Spectrum: 2048
>>>>>Begin Processed Spectral Data<<<<<
W	D	R	S	P
190.244385	0.000000	0.000000	0.000000	0.000000
190.627136	0.000000	0.000000	0.000000	0.000000
191.009842	1221.954712	1244.709839	1274.291626	230.000534
191.392532	1335.730713	1244.709839	1196.923950	152.499924
191.775177	1317.526489	1301.597900	1237.883301	500.001526
192.157791	1219.679199	1292.495850	1253.812012	46.875011
192.540390	1322.077637	1281.118164	1285.669312	88.888657
192.922943	1274.291626	1312.975464	1269.740601	-11.764668
193.305481	1333.455200	1312.975464	1231.056763	499.998810
193.687958	1281.118164	1272.016113	1276.567139	50.000000
194.070419	1290.220337	1285.669312	1244.709839	1000.005371
194.452866	1244.709839	1265.189575	1308.424438	311.110443
194.835251	1290.220337	1306.148926	1251.536499	-242.857910
195.217621	1299.322388	1349.383789	1267.465088	-63.636452
195.599960	1312.975464	1301.597900	1322.077637	-80.001076
195.982254	1297.046875	1297.046875	1310.699951	0.000000
196.364517	1297.046875	1310.699951	1274.291626	-166.667557
196.746750	1326.628662	1365.312500	1294.771362	-82.352997
197.128952	1290.220337	1353.934937	1240.158813	-78.571510
197.511139	1328.904175	1326.628662	1233.332275	4200.016113
197.893280	1331.179688	1335.730713	1201.474976	-2850.010742
198.275391	1310.699951	1312.975464	1335.730713	1100.005371
198.657471	1276.567139	1297.046875	1251.536499	-122.221497
199.039520	1244.709839	1349.383789	1224.230225	-19.565149
199.421539	1347.108276	1331.179688	1251.536499	600.001526
199.803513	1256.087524	1285.669312	1294.771362	130.769104
200.185471	1253.812012	1358.485962	1231.056763	-21.739170
200.567383	1335.730713	1272.016113	1274.291626	96.428589
200.949265	1283.393677	1287.944824	1231.056763	-1149.971802
201.331131	1326.628662	1335.730713	1274.291626	-575.002686
201.712967	1299.322388	1315.250977	1338.006226	242.857910
202.094742	1235.607788	1308.424438	1246.985352	15.624948
202.476517	1233.332275	1278.842651	1272.016113	85.000038
202.858231	1258.363037	1281.118164	1310.699951	230.000534
203.239944	1301.597900	1292.495850	1340.281738	-425.001343
203.621582	1256.087524	1328.904175	1240.158813	-21.875093
204.003235	1363.036987	1285.669312	1210.577026	197.058990
204.384827	1276.567139	1292.495850	1185.546387	-571.425720
204.766388	1281.118164	1274.291626	1210.577026	1033.336914
205.147934	1301.597900	1292.495850	1285.669312	175.000000
205.529449	1403.996338	1312.975464	1256.087524	162.499878
205.910904	1283.393677	1258.363037	1299.322388	-63.636852
206.292343	1210.577026	1322.077637	1217.403687	6.122531
206.673767	1308.424438	1281.118164	1278.842651	108.333298
207.055115	1242.434326	1372.139038	1292.495850	38.596535
207.436462	1328.904175	1326.628662	1260.638550	3000.010742
207.817780	1303.873413	1399.445313	1292.495850	-11.904716
208.199051	1251.536499	1328.904175	1281.118164	38.235172
208.580307	1242.434326	1390.343262	1267.465088	16.923090
208.961517	1267.465088	1306.148926	1258.363037	-23.529337
209.342712	1292.495850	1312.975464	1278.842651	-66.667259
209.723846	1242.434326	1221.954712	1301.597900	-288.890076
210.104965	1322.077637	1285.669312	1292.495850	81.250061
210.486069	1267.465088	1306.148926	1231.056763	-94.117668
210.867111	1281.118164	1226.505737	1244.709839	66.666740
211.248123	1301.597900	1299.322388	1276.567139	1100.005371
211.629120	1322.077637	1319.802124	1276.567139	2000.010742
212.010071	1274.291626	1338.006226	1306.148926	50.000000
212.390991	1262.914063	1283.393677	1185.546387	-377.778961
212.771881	1294.771362	1351.659302	1272.016113	-40.000130
213.152756	1319.802124	1374.414551	1274.291626	-83.333595
213.533569	1306.148926	1333.455200	1242.434326	-233.333191
213.914368	1226.505737	1369.863525	1285.669312	41.269871
214.295135	1267.465088	1317.526489	1269.740601	4.545444
214.675858	1249.260864	1365.312500	1249.260864	0.000000
215.056549	1322.077637	1328.904175	1224.230225	-1433.338745
215.437225	1285.669312	1299.322388	1165.066650	-883.336914
215.817841	1276.567139	1360.761475	1260.638550	-18.918837
216.198441	1358.485962	1340.281738	1246.985352	612.498596
216.579025	1353.934937	1385.792114	1228.781250	-392.858673
216.959549	1299.322388	1292.495850	1187.821899	1633.338745
217.340057	1278.842651	1344.832764	1233.332275	-68.965446
217.720535	1301.597900	1347.108276	1233.332275	-150.000137
218.100967	1294.771362	1301.597900	1326.628662	466.668457
218.481369	1317.526489	1335.730713	1299.322388	-99.999329
218.861740	1344.832764	1292.495850	1169.617676	334.782990
219.242065	1256.087524	1228.781250	1292.495850	-133.333191
219.622391	1256.087524	1303.873413	1231.056763	-52.381073
220.002670	1274.291626	1317.526489	1244.709839	-68.421143
220.382919	1344.832764	1228.781250	1297.046875	41.176445
220.763123	1308.424438	1322.077637	1283.393677	-183.332596
221.143295	1356.210449	1322.077637	1228.781250	373.333435
221.523453	1269.740601	1340.281738	1292.495850	32.258125
221.903549	1251.536499	1356.210449	1251.536499	0.000000
222.283630	1297.046875	1333.455200	1269.740601	-75.000084
222.663696	1317.526489	1319.802124	1231.056763	-3799.806885
223.043701	1206.026001	1333.455200	1224.230225	14.285755
223.423676	1224.230225	1378.965576	1217.403687	-4.411751
223.803635	1244.709839	1347.108276	1274.291626	28.888905
224.183548	1260.638550	1285.669312	1276.567139	63.636055
224.563431	1260.638550	1283.393677	1256.087524	-20.000000
224.943283	1322.077637	1335.730713	1274.291626	-350.001801
225.323105	1246.985352	1353.934937	1326.628662	74.468086
225.702881	1260.638550	1308.424438	1306.148926	95.238106
226.082642	1242.434326	1265.189575	1265.189575	100.000000
226.462357	1365.312500	1383.516602	1278.842651	-475.002014
226.842041	1219.679199	1369.863525	1251.536499	21.212133
227.221695	1319.802124	1315.250977	1201.474976	2599.940918
227.601318	1306.148926	1406.271851	1272.016113	-34.090908
227.980911	1276.567139	1463.159912	1287.944824	6.097602
228.360474	1287.944824	1383.516602	1297.046875	9.523786
228.739990	1283.393677	1440.404663	1240.158813	-27.536203
229.119476	1285.669312	1408.547363	1251.536499	-27.777794
229.498932	1283.393677	1424.476074	1299.322388	11.290360
229.878372	1299.322388	1504.119263	1196.923950	-50.000000
230.257736	1262.914063	1515.496826	1258.363037	-1.801796
230.637115	1174.168701	1572.384888	1319.802124	36.571445
231.016449	1242.434326	1454.057739	1276.567139	16.129034
231.395737	1267.465088	1542.803101	1260.638550	-2.479330
231.774994	1269.740601	1442.680176	1251.536499	-10.526278
232.154221	1276.567139	1476.812988	1221.954712	-27.272688
232.533417	1231.056763	1451.782227	1240.158813	4.123698
232.912582	1265.189575	1419.924927	1283.393677	11.764668
233.291702	1299.322388	1392.618774	1285.669312	-14.634089
233.670792	1276.567139	1447.231201	1262.914063	-7.999971
234.049866	1251.536499	1444.955688	1249.260864	-1.176530
234.428894	1349.383789	1417.649414	1244.709839	-153.333328
234.807892	1292.495850	1410.822876	1274.291626	-15.384671
235.186874	1308.424438	1444.955688	1260.638550	-34.999966
235.565781	1203.750488	1504.119263	1297.046875	31.060614
235.944687	1274.291626	1490.466064	1246.985352	-12.631593
236.323547	1333.455200	1501.843750	1206.026001	-75.675690
236.702377	1287.944824	1481.364014	1262.914063	-12.941198
237.081177	1283.393677	1501.843750	1340.281738	26.041677
237.459946	1269.740601	1515.496826	1226.505737	-17.592581
237.838669	1265.189575	1535.976563	1237.883301	-10.084043
238.217361	1206.026001	1565.558350	1276.567139	19.620247
238.596039	1244.709839	1515.496826	1278.842651	12.605042
238.974670	1299.322388	1561.007324	1333.455200	13.043476
239.353271	1297.046875	1488.190552	1326.628662	15.476205
239.731842	1244.709839	1533.701050	1281.118164	12.598419
240.110367	1308.424438	1488.190552	1278.842651	-16.455708
240.488876	1301.597900	1608.793213	1290.220337	-3.703691
240.867340	1356.210449	1590.588989	1281.118164	-32.038891
241.245789	1306.148926	1545.078613	1294.771362	-4.761888
241.624176	1303.873413	1508.670288	1262.914063	-19.999989
242.002548	1297.046875	1706.640625	1269.740601	-6.666673
242.380890	1351.659302	1758.977539	1240.158813	-27.374292
242.759186	1272.016113	1736.222412	1317.526489	9.803912
243.137451	1303.873413	1904.610962	1260.638550	-7.196964
243.515686	1274.291626	1966.049927	1292.495850	2.631587
243.893890	1274.291626	2011.560425	1319.802124	6.172850
244.272049	1210.577026	1981.978638	1226.505737	2.064905
244.650192	1331.179688	1843.171875	1294.771362	-7.111110
245.028290	1308.424438	1827.243164	1258.363037	-9.649113
245.406357	1190.097412	1699.814087	1319.802124	25.446432
245.784393	1272.016113	1692.987427	1303.873413	7.567570
246.162384	1308.424438	1756.702026	1274.291626	-7.614213
246.540359	1278.842651	1793.110352	1315.250977	7.079645
246.918289	1208.301514	1822.692139	1319.802124	18.148163
247.296204	1338.006226	2052.519775	1285.669312	-7.324831
247.674057	1294.771362	2245.938965	1435.853638	14.832536
248.051895	1338.006226	2393.847900	1312.975464	-2.370693
248.429703	1347.108276	2443.909424	1372.139038	2.282161
248.807465	1278.842651	2473.491211	1394.894287	9.714291
249.185196	1281.118164	2316.480225	1358.485962	7.472536
249.562897	1317.526489	2125.336426	1310.699951	-0.845067
249.940567	1358.485962	2098.030273	1342.557251	-2.153855
250.318192	1312.975464	1972.876587	1344.832764	4.827587
250.695801	1317.526489	1986.529663	1292.495850	-3.741483
251.073349	1324.353149	1859.100464	1253.812012	-13.191490
251.450882	1303.873413	1827.243164	1308.424438	0.869562
251.828400	1276.567139	1879.580200	1315.250977	6.415091
252.205872	1221.954712	1790.834839	1315.250977	16.399986
252.583313	1269.740601	1900.059814	1290.220337	3.249105
252.960693	1226.505737	1938.743774	1306.148926	11.182102
253.338074	1303.873413	2045.693237	1317.526489	1.840484
253.715408	1287.944824	2077.550537	1212.852539	-9.510099
254.092682	1319.802124	1945.570313	1340.281738	3.272716
254.469955	1258.363037	1806.763550	1258.363037	0.000000
254.847198	1231.056763	1779.457275	1306.148926	13.692942
255.224365	1283.393677	1854.549438	1328.904175	7.968141
255.601563	1215.128052	1768.079712	1283.393677	12.345676
255.978683	1338.006226	1834.069824	1292.495850	-9.174303
256.355743	1260.638550	1818.141113	1294.771362	6.122449
256.732819	1240.158813	1906.886475	1269.740601	4.436862
257.109894	1301.597900	1829.518677	1287.944824	-2.586198
257.486877	1267.465088	1920.539551	1328.904175	9.407669
257.863831	1276.567139	1934.192627	1310.699951	5.190312
258.240753	1326.628662	1943.294800	1306.148926	-3.321041
258.617645	1303.873413	2029.764526	1333.455200	4.075238
258.994507	1251.536499	2118.509766	1324.353149	8.398950
259.371307	1274.291626	2184.500000	1283.393677	0.999996
259.748108	1292.495850	2286.898438	1353.934937	6.178492
260.124878	1212.852539	2493.970703	1342.557251	10.124336
260.501617	1315.250977	2760.206787	1406.271851	6.299215
260.878296	1294.771362	2919.493164	1410.822876	7.142855
261.254944	1301.597900	3056.024414	1413.098389	6.355381
261.631561	1262.914063	2933.146240	1410.822876	8.855584
262.008179	1347.108276	2657.808350	1356.210449	0.694451
262.384735	1290.220337	2484.868652	1399.445313	9.142856
262.761261	1278.842651	2275.520752	1269.740601	-0.913239
263.137695	1281.118164	2311.929199	1317.526489	3.532008
263.514191	1206.026001	2141.265137	1326.628662	12.895382
263.890594	1219.679199	2107.132324	1344.832764	14.102555
264.267029	1265.189575	2141.265137	1324.353149	6.753250
264.643341	1251.536499	2145.816162	1333.455200	9.160300
265.019653	1333.455200	2111.683350	1374.414551	5.263155
265.395935	1312.975464	2152.642578	1308.424438	-0.542004
265.772217	1256.087524	2045.693237	1281.118164	3.170017
266.148407	1281.118164	2045.693237	1290.220337	1.190488
266.524597	1281.118164	2079.825928	1283.393677	0.284899
266.900726	1237.883301	2286.898438	1367.588013	12.364428
267.276855	1322.077637	2352.888428	1360.761475	3.752758
267.652924	1272.016113	2407.500977	1240.158813	-2.805612
268.028992	1351.659302	2346.062012	1358.485962	0.686509
268.404999	1303.873413	2430.256104	1388.067749	7.474754
268.781006	1335.730713	2416.603027	1317.526489	-1.684216
269.156921	1290.220337	2334.684326	1365.312500	7.189541
269.532837	1322.077637	2325.582275	1347.108276	2.494322
269.908661	1233.332275	2409.776611	1344.832764	9.477753
270.284546	1301.597900	2277.796387	1328.904175	2.797205
270.660339	1365.312500	2409.776611	1408.547363	4.139430
271.036133	1260.638550	2450.735840	1324.353149	5.353730
271.411835	1285.669312	2318.755615	1290.220337	0.440527
271.787537	1256.087524	2594.093750	1351.659302	7.142850
272.163239	1215.128052	2814.819336	1424.476074	13.086777
272.538849	1315.250977	2987.758789	1449.506714	8.027211
272.914459	1299.322388	2912.666504	1415.373901	7.193228
273.290070	1272.016113	2846.676514	1392.618774	7.658963
273.665588	1281.118164	2673.737061	1319.802124	2.777785
274.041046	1285.669312	2714.696289	1356.210449	4.936306
274.416565	1246.985352	2550.858887	1392.618774	11.169291
274.791962	1206.026001	2621.399902	1369.863525	11.575565
275.167389	1319.802124	2544.032227	1310.699951	-0.743502
275.542755	1283.393677	2498.521729	1369.863525	7.116110
275.918060	1244.709839	2523.552490	1297.046875	4.092531
276.293365	1281.118164	2459.837891	1335.730713	4.633209
276.668640	1317.526489	2584.991699	1315.250977	-0.179533
277.043854	1272.016113	2546.307861	1388.067749	9.107148
277.419037	1260.638550	2687.390137	1367.588013	7.496011
277.794189	1287.944824	2716.971924	1365.312500	5.414011
278.169312	1217.403687	2714.696289	1333.455200	7.750757
278.544373	1294.771362	2682.839111	1399.445313	7.540983
278.919464	1322.077637	2537.205811	1365.312500	3.558050
279.294464	1287.944824	2569.062988	1369.863525	6.394313
279.669464	1237.883301	2619.124512	1347.108276	7.907741
280.044403	1256.087524	2669.185791	1388.067749	9.339777
280.419312	1262.914063	2689.665527	1351.659302	6.220091
280.794189	1276.567139	2710.145264	1429.027100	10.634925
281.169037	1331.179688	2680.563477	1415.373901	6.239457
281.543854	1353.934937	2810.268311	1340.281738	-0.937505
281.918671	1228.781250	2851.227539	1369.863525	8.695651
282.293365	1312.975464	2924.044189	1381.241089	4.237288
282.668091	1358.485962	3056.024414	1356.210449	-0.134048
283.042786	1353.934937	3147.045166	1444.955688	5.076138
283.417419	1299.322388	3030.993652	1383.516602	4.862020
283.792053	1237.883301	3046.922363	1385.792114	8.176099
284.166595	1283.393677	2905.840088	1410.822876	7.854139
284.541138	1199.199463	2873.982666	1410.822876	12.635869
284.915619	1237.883301	2951.350586	1392.618774	9.030547
285.290100	1308.424438	3012.789551	1351.659302	2.536714
285.664520	1297.046875	3067.402100	1385.792114	5.012849
286.038940	1326.628662	3117.463379	1360.761475	1.905972
286.413300	1269.740601	3112.912354	1351.659302	4.444442
286.787628	1310.699951	3244.892578	1517.772339	10.705882
287.161896	1285.669312	3470.169189	1460.884399	8.020833
287.536194	1240.158813	3360.944336	1433.578125	9.120173
287.910400	1290.220337	3281.301025	1422.200562	6.628572
288.284607	1331.179688	3219.861816	1422.200562	4.819280
288.658752	1303.873413	3096.983887	1444.955688	7.868019
289.032867	1303.873413	2974.105713	1392.618774	5.313354
289.406921	1278.842651	2924.044189	1440.404663	9.820196
289.781006	1269.740601	3046.922363	1501.843750	13.060181
290.154999	1294.771362	3128.841064	1510.945801	11.786599
290.529022	1258.363037	3213.035400	1481.364014	11.408611
290.902954	1308.424438	3272.198975	1506.394775	10.081114
291.276825	1292.495850	3429.209961	1574.660400	13.205536
291.650757	1324.353149	3374.597412	1601.966675	13.540510
292.024597	1369.863525	3447.414063	1586.037964	10.405255
292.398407	1281.118164	3356.393066	1538.252075	12.390354
292.772156	1290.220337	3310.882813	1606.517700	15.653152
293.145905	1240.158813	3206.208740	1524.598877	14.467591
293.519592	1283.393677	3192.555664	1561.007324	14.541126
293.893280	1306.148926	3156.147461	1551.905151	13.284131
294.266907	1310.699951	3297.229736	1595.140137	14.318445
294.640533	1278.842651	3360.944336	1520.047852	11.584699
295.014069	1272.016113	3481.546875	1592.864502	14.521110
295.387604	1317.526489	3615.802490	1608.793213	12.673271
295.761078	1267.465088	3572.567627	1720.293701	19.644619
296.134552	1235.607788	3590.771729	1613.344238	16.038647
296.507996	1251.536499	3593.047363	1624.721802	15.937800
296.881378	1178.719727	3572.567627	1615.619751	18.250952
297.254730	1285.669312	3875.211914	1615.619751	12.741650
297.628021	1262.914063	4068.631104	1638.375000	13.381996
298.001282	1274.291626	4027.671875	1690.711914	15.123965
298.374573	1310.699951	4068.631104	1672.507813	13.118814
298.747803	1253.812012	3993.539063	1658.854614	14.784049
299.121002	1269.740601	3795.568604	1704.365112	17.207209
299.494141	1228.781250	3702.272461	1640.650513	16.651333
299.867188	1221.954712	3645.384277	1592.864502	15.305160
300.240265	1253.812012	3538.434814	1529.150024	12.051793
300.613312	1278.842651	3424.658691	1597.415649	14.846241
300.986328	1283.393677	3401.903564	1642.926025	16.971003
301.359314	1251.536499	3310.882813	1556.456177	14.806625
301.732239	1256.087524	3333.637939	1579.211426	15.553121
302.105103	1253.812012	3413.281250	1626.997314	17.281343
302.477997	1258.363037	3401.903564	1615.619751	16.666664
302.850830	1285.669312	3408.730225	1576.935913	13.719182
303.223602	1285.669312	3272.198975	1613.344238	16.494843
303.596375	1256.087524	3315.433838	1631.548462	18.232046
303.969116	1287.944824	3224.413086	1617.895264	17.038773
304.341766	1294.771362	3283.576416	1604.242188	15.560641
304.714478	1349.383789	3294.954102	1601.966675	12.982460
305.087067	1347.108276	3035.544678	1561.007324	12.668469
305.459656	1246.985352	3192.555664	1549.629639	15.555556
305.832214	1294.771362	3224.413086	1572.384888	14.386791
306.204681	1340.281738	3235.790527	1640.650513	15.846340
306.577148	1303.873413	3233.515137	1545.078613	12.499999
306.949646	1347.108276	3326.811523	1606.517700	13.103450
307.322021	1281.118164	3231.239502	1588.313477	15.752625
307.694397	1287.944824	3162.973877	1572.384888	15.169902
308.066742	1262.914063	3251.719238	1535.976563	13.729978
308.439026	1351.659302	3285.852051	1556.456177	10.588235
308.811279	1310.699951	3404.179199	1615.619751	14.565217
309.183502	1253.812012	3606.700439	1606.517700	14.990328
309.555695	1235.607788	3622.629150	1556.456177	13.441370
309.927887	1215.128052	3608.976074	1633.823975	17.490496
310.299988	1237.883301	3547.536865	1645.201538	17.635469
310.672058	1333.455200	3574.843262	1545.078613	9.441623
311.044128	1219.679199	3684.068115	1661.130127	17.913200
311.416168	1272.016113	3693.170166	1652.028076	15.695489
311.788147	1253.812012	3618.078125	1592.864502	14.340708
312.160065	1187.821899	3715.925537	1629.272949	17.461748
312.531982	1328.904175	3595.322754	1649.752563	14.156626
312.903870	1315.250977	3613.527100	1570.109375	11.089111
313.275696	1301.597900	3449.689453	1604.242188	14.088984
313.647491	1276.567139	3413.281250	1608.793213	15.548457
314.019318	1342.557251	3360.944336	1576.935913	11.612176
314.391022	1328.904175	3397.352539	1595.140137	12.871289
314.762726	1328.904175	3574.843262	1517.772339	8.409319
315.134369	1260.638550	3502.026611	1561.007324	13.401015
315.505981	1267.465088	3606.700439	1586.037964	13.618675
315.877594	1249.260864	3718.200928	1667.956787	16.958530
316.249146	1315.250977	3611.251465	1606.517700	12.685830
316.620636	1267.465088	3583.945313	1567.833862	12.966602
316.992157	1276.567139	3338.188965	1563.282837	13.907289
317.363586	1240.158813	3388.250488	1576.935913	15.677966
317.735016	1283.393677	3301.780762	1504.119263	10.935741
318.106354	1274.291626	3269.923340	1554.180664	14.025084
