Jaz Data File
++++++++++++++++++++++++++++++++++++
Date: Wed Feb 07 06:41:47 2024
User: jaz
Dark Spectrum Present: Yes
Reference Spectrum Present: Yes
Processed Spectrum Present: Yes
Spectrometers: JAZA3692
Integration Time (usec): 40000 (JAZA3692)
Spectra Averaged: 1 (JAZA3692)
Boxcar Smoothing: 0 (JAZA3692)
Correct for Electrical Dark: No (JAZA3692)
Strobe/Lamp Enabled: Yes (JAZA3692)
Correct for Detector Non-linearity: No (JAZA3692)
Correct for Stray Light: No (JAZA3692)
Number of Pixels in Processed Spectrum: 2048
>>>>>Begin Processed Spectral Data<<<<<
W	D	R	S	P
190.244385	0.000000	0.000000	0.000000	0.000000
190.627136	0.000000	0.000000	0.000000	0.000000
191.009842	1133.209351	1160.515625	1094.525513	-141.666473
191.392532	1219.679199	1183.270874	1092.250000	350.000153
191.775177	1244.709839	1165.066650	1099.076538	182.857193
192.157791	1153.689087	1171.893188	1126.382813	-150.000671
192.540390	1174.168701	1199.199463	1171.893188	-9.090865
192.922943	1128.658325	1212.852539	1115.005249	-16.216169
193.305481	1171.893188	1212.852539	1144.586914	-66.666763
193.687958	1210.577026	1221.954712	1162.791138	-419.996552
194.070419	1153.689087	1167.342163	1158.240112	33.333332
194.452866	1206.026001	1203.750488	1155.964600	2200.005371
194.835251	1194.648438	1260.638550	1105.903076	-134.482819
195.217621	1242.434326	1187.821899	1199.199463	79.166710
195.599960	1226.505737	1178.719727	1221.954712	9.523761
195.982254	1228.781250	1260.638550	1176.444214	-164.285858
196.364517	1208.301514	1178.719727	1101.352051	361.538208
196.746750	1240.158813	1149.138062	1226.505737	14.999960
197.128952	1224.230225	1199.199463	1212.852539	45.454811
197.511139	1180.995239	1171.893188	1167.342163	150.000000
197.893280	1224.230225	1187.821899	1212.852539	31.250231
198.275391	1192.372925	1224.230225	1178.719727	-42.857361
198.657471	1206.026001	1251.536499	1183.270874	-49.999733
199.039520	1203.750488	1237.883301	1167.342163	-106.666641
199.421539	1208.301514	1210.577026	1201.474976	-300.000000
199.803513	1180.995239	1153.689087	1067.219238	416.667999
200.185471	1180.995239	1196.923950	1183.270874	14.286371
200.567383	1221.954712	1244.709839	1217.403687	-20.000000
200.949265	1119.556274	1208.301514	1162.791138	48.717953
201.331131	1167.342163	1199.199463	1124.107300	-135.714142
201.712967	1192.372925	1183.270874	1099.076538	1025.004028
202.094742	1176.444214	1171.893188	1219.679199	-950.005371
202.476517	1226.505737	1240.158813	1233.332275	50.000000
202.858231	1153.689087	1158.240112	1146.862427	-150.002686
203.239944	1183.270874	1167.342163	1167.342163	100.000000
203.621582	1192.372925	1190.097412	1185.546387	300.000000
204.003235	1237.883301	1194.648438	1251.536499	-31.579140
204.384827	1219.679199	1251.536499	1183.270874	-114.285660
204.766388	1167.342163	1228.781250	1144.586914	-37.037090
205.147934	1185.546387	1176.444214	1146.862427	424.996979
205.529449	1146.862427	1231.056763	1153.689087	8.108218
205.910904	1201.474976	1242.434326	1124.107300	-188.888916
206.292343	1117.280762	1201.474976	1105.903076	-13.513619
206.673767	1267.465088	1233.332275	1142.311401	366.666779
207.055115	1176.444214	1237.883301	1167.342163	-14.814756
207.436462	1251.536499	1199.199463	1121.831787	247.825867
207.817780	1151.413574	1224.230225	1169.617676	24.999916
208.199051	1235.607788	1217.403687	1210.577026	137.500671
208.580307	1080.872437	1219.679199	1130.933838	36.065536
208.961517	1212.852539	1187.821899	1140.035889	290.910065
209.342712	1174.168701	1215.128052	1160.515625	-33.333233
209.723846	1246.985352	1190.097412	1176.444214	124.000160
210.104965	1167.342163	1144.586914	1160.515625	29.999840
210.486069	1224.230225	1194.648438	1153.689087	238.461380
210.867111	1128.658325	1231.056763	1217.403687	86.666718
211.248123	1233.332275	1201.474976	1185.546387	149.999802
211.629120	1115.005249	1212.852539	1199.199463	86.046547
212.010071	1219.679199	1167.342163	1160.515625	113.043419
212.390991	1171.893188	1180.995239	1110.454102	-675.002686
212.771881	1126.382813	1187.821899	1149.138062	37.037090
213.152756	1208.301514	1265.189575	1140.035889	-119.999916
213.533569	1142.311401	1176.444214	1121.831787	-59.999786
213.914368	1165.066650	1137.760376	1126.382813	141.666473
214.295135	1215.128052	1174.168701	1171.893188	105.555542
214.675858	1128.658325	1151.413574	1140.035889	49.999733
215.056549	1203.750488	1160.515625	1089.974487	263.157990
215.437225	1124.107300	1199.199463	1153.689087	39.393974
215.817841	1212.852539	1237.883301	1124.107300	-354.544708
216.198441	1183.270874	1178.719727	1105.903076	1699.962402
216.579025	1183.270874	1242.434326	1135.484863	-80.769478
216.959549	1206.026001	1199.199463	1144.586914	900.003601
217.340057	1140.035889	1258.363037	1124.107300	-13.461483
217.720535	1217.403687	1146.862427	1124.107300	132.257904
218.100967	1135.484863	1235.607788	1151.413574	15.909155
218.481369	1190.097412	1169.617676	1119.556274	344.443573
218.861740	1226.505737	1185.546387	1144.586914	200.000305
219.242065	1231.056763	1274.291626	1194.648438	-84.210571
219.622391	1212.852539	1178.719727	1101.352051	326.666565
220.002670	1162.791138	1201.474976	1142.311401	-52.941326
220.382919	1146.862427	1217.403687	1094.525513	-74.193336
220.763123	1262.914063	1233.332275	1146.862427	392.307739
221.143295	1226.505737	1165.066650	1167.342163	96.296310
221.523453	1165.066650	1130.933838	1137.760376	80.000069
221.903549	1162.791138	1160.515625	1160.515625	100.000000
222.283630	1089.974487	1221.954712	1119.556274	22.413803
222.663696	1237.883301	1192.372925	1196.923950	90.000031
223.043701	1155.964600	1235.607788	1135.484863	-25.714359
223.423676	1158.240112	1206.026001	1146.862427	-23.809719
223.803635	1178.719727	1206.026001	1158.240112	-74.999664
224.183548	1190.097412	1165.066650	1190.097412	-0.000000
224.563431	1196.923950	1253.812012	1260.638550	111.999947
224.943283	1194.648438	1167.342163	1183.270874	41.666481
225.323105	1178.719727	1228.781250	1176.444214	-4.545433
225.702881	1215.128052	1210.577026	1096.801025	2600.008057
226.082642	1187.821899	1246.985352	1212.852539	42.307606
226.462357	1203.750488	1226.505737	1278.842651	329.999298
226.842041	1167.342163	1287.944824	1190.097412	18.867949
227.221695	1233.332275	1233.332275	1133.209351	0.000000
227.601318	1151.413574	1233.332275	1155.964600	5.555539
227.980911	1183.270874	1283.393677	1174.168701	-9.091009
228.360474	1237.883301	1206.026001	1212.852539	78.571510
228.739990	1167.342163	1242.434326	1128.658325	-51.515148
229.119476	1137.760376	1226.505737	1233.332275	107.692276
229.498932	1126.382813	1338.006226	1130.933838	2.150530
229.878372	1199.199463	1385.792114	1196.923950	-1.219508
230.257736	1190.097412	1472.261963	1201.474976	4.032244
230.637115	1133.209351	1426.751587	1187.821899	18.604664
231.016449	1190.097412	1372.139038	1162.791138	-15.000017
231.395737	1206.026001	1372.139038	1180.995239	-15.068511
231.774994	1199.199463	1299.322388	1171.893188	-27.272749
232.154221	1201.474976	1438.129150	1142.311401	-25.000013
232.533417	1171.893188	1240.158813	1119.556274	-76.666573
232.912582	1201.474976	1347.108276	1210.577026	6.249979
233.291702	1206.026001	1322.077637	1190.097412	-13.725432
233.670792	1201.474976	1285.669312	1144.586914	-67.567566
234.049866	1196.923950	1267.465088	1165.066650	-45.161308
234.428894	1144.586914	1347.108276	1158.240112	6.741609
234.807892	1174.168701	1317.526489	1146.862427	-19.047640
235.186874	1219.679199	1422.200562	1142.311401	-38.202290
235.565781	1151.413574	1429.027100	1167.342163	5.737685
235.944687	1174.168701	1397.169800	1162.791138	-5.102021
236.323547	1135.484863	1347.108276	1121.831787	-6.451591
236.702377	1160.515625	1342.557251	1171.893188	6.249979
237.081177	1155.964600	1388.067749	1194.648438	16.666658
237.459946	1119.556274	1417.649414	1121.831787	0.763356
237.838669	1267.465088	1344.832764	1162.791138	-135.294159
238.217361	1149.138062	1342.557251	1165.066650	8.235269
238.596039	1217.403687	1278.842651	1112.729614	-170.370819
238.974670	1160.515625	1315.250977	1169.617676	5.882334
239.353271	1208.301514	1383.516602	1160.515625	-27.272701
239.731842	1149.138062	1422.200562	1190.097412	14.999991
240.110367	1180.995239	1335.730713	1115.005249	-42.646969
240.488876	1187.821899	1422.200562	1228.781250	17.475716
240.867340	1201.474976	1390.343262	1160.515625	-21.686728
241.245789	1219.679199	1438.129150	1278.842651	27.083298
241.624176	1089.974487	1508.670288	1221.954712	31.521746
242.002548	1171.893188	1413.098389	1242.434326	29.245281
242.380890	1155.964600	1542.803101	1190.097412	8.823530
242.759186	1210.577026	1672.507813	1180.995239	-6.403944
243.137451	1171.893188	1788.559326	1242.434326	11.439114
243.515686	1158.240112	1784.008301	1165.066650	1.090905
243.893890	1140.035889	1733.946899	1237.883301	16.475096
244.272049	1160.515625	1790.834839	1190.097412	4.693144
244.650192	1135.484863	1686.160889	1130.933838	-0.826443
245.028290	1221.954712	1647.477051	1312.975464	21.390358
245.406357	1103.627563	1642.926025	1253.812012	27.848114
245.784393	1171.893188	1654.303589	1215.128052	8.962257
246.162384	1208.301514	1570.109375	1192.372925	-4.402499
246.540359	1219.679199	1661.130127	1158.240112	-13.917535
246.918289	1167.342163	1722.569214	1203.750488	6.557376
247.296204	1130.933838	1909.161987	1221.954712	11.695911
247.674057	1208.301514	2143.540527	1242.434326	3.649635
248.051895	1183.270874	2275.520752	1319.802124	12.500001
248.429703	1244.709839	2387.021240	1256.087524	0.996023
248.807465	1153.689087	2341.510986	1301.597900	12.452104
249.185196	1185.546387	2177.673340	1215.128052	2.981641
249.562897	1178.719727	2038.866699	1217.403687	4.497366
249.940567	1199.199463	1929.641602	1192.372925	-0.934576
250.318192	1174.168701	1925.090576	1283.393677	14.545451
250.695801	1203.750488	1790.834839	1253.812012	8.527143
251.073349	1165.066650	1688.436401	1221.954712	10.869574
251.450882	1155.964600	1697.538574	1221.954712	12.184875
251.828400	1203.750488	1793.110352	1135.484863	-11.583013
252.205872	1201.474976	1749.875488	1174.168701	-4.979258
252.583313	1169.617676	1752.151001	1240.158813	12.109374
252.960693	1101.352051	1881.855713	1194.648438	11.953357
253.338074	1151.413574	1906.886475	1212.852539	8.132518
253.715408	1185.546387	1897.784302	1212.852539	3.833853
254.092682	1180.995239	1836.345337	1221.954712	6.250014
254.469955	1180.995239	1774.906250	1276.567139	16.091957
254.847198	1190.097412	1642.926025	1192.372925	0.502511
255.224365	1165.066650	1706.640625	1267.465088	18.907562
255.601563	1217.403687	1638.375000	1228.781250	2.702693
255.978683	1192.372925	1672.507813	1219.679199	5.687209
256.355743	1140.035889	1636.099487	1242.434326	20.642199
256.732819	1183.270874	1713.467163	1196.923950	2.575099
257.109894	1206.026001	1729.395752	1224.230225	3.478272
257.486877	1158.240112	1722.569214	1272.016113	20.161285
257.863831	1208.301514	1772.630737	1235.607788	4.838714
258.240753	1171.893188	1861.375977	1249.260864	11.221118
258.617645	1178.719727	1834.069824	1283.393677	15.972219
258.994507	1112.729614	1961.498901	1240.158813	15.013409
259.371307	1171.893188	2070.723877	1219.679199	5.316464
259.748108	1128.658325	2202.704102	1219.679199	8.474581
260.124878	1112.729614	2380.194824	1358.485962	19.389593
260.501617	1169.617676	2614.573486	1262.914063	6.456695
260.878296	1162.791138	2728.349365	1365.312500	12.936048
261.254944	1194.648438	2960.452637	1454.057739	14.690718
261.631561	1135.484863	2883.084961	1340.281738	11.718749
262.008179	1117.280762	2639.604248	1344.832764	14.947678
262.384735	1174.168701	2341.510986	1367.588013	16.569202
262.761261	1124.107300	2189.051025	1226.505737	9.615385
263.137695	1105.903076	2050.244141	1290.220337	19.518082
263.514191	1174.168701	2070.723877	1326.628662	17.005083
263.890594	1190.097412	2107.132324	1297.046875	11.662529
264.267029	1215.128052	1938.743774	1192.372925	-3.144642
264.643341	1192.372925	2041.142212	1203.750488	1.340478
265.019653	1185.546387	1922.815063	1221.954712	4.938271
265.395935	1169.617676	2007.009399	1199.199463	3.532610
265.772217	1212.852539	1986.529663	1253.812012	5.294130
266.148407	1158.240112	1929.641602	1224.230225	8.554574
266.524597	1144.586914	2068.448486	1283.393677	15.024628
266.900726	1146.862427	2109.407715	1272.016113	13.002369
267.276855	1219.679199	2136.714111	1219.679199	0.000000
267.652924	1085.423462	2327.857666	1235.607788	12.087910
268.028992	1140.035889	2298.276123	1251.536499	9.626726
268.404999	1217.403687	2239.112549	1333.455200	11.358570
268.781006	1194.648438	2223.183838	1251.536499	5.530978
269.156921	1174.168701	2268.694336	1285.669312	10.187118
269.532837	1231.056763	2266.418701	1192.372925	-3.736262
269.908661	1203.750488	2273.245361	1192.372925	-1.063826
270.284546	1160.515625	2264.143311	1165.066650	0.412370
270.660339	1146.862427	2316.480225	1292.495850	12.451368
271.036133	1183.270874	2227.734863	1312.975464	12.418292
271.411835	1187.821899	2250.489990	1303.873413	10.920768
271.787537	1180.995239	2489.419678	1251.536499	5.391313
272.163239	1130.933838	2744.278076	1274.291626	8.885754
272.538849	1160.515625	2924.044189	1338.006226	10.064515
272.914459	1108.178589	2703.318604	1278.842651	10.699002
273.290070	1208.301514	2666.910400	1292.495850	5.772235
273.665588	1190.097412	2571.338623	1335.730713	10.543654
274.041046	1142.311401	2594.093750	1324.353149	12.539190
274.416565	1226.505737	2464.388916	1312.975464	6.985290
274.791962	1167.342163	2525.828125	1283.393677	8.542709
275.167389	1124.107300	2402.949951	1301.597900	13.879003
275.542755	1203.750488	2482.593262	1363.036987	12.455519
275.918060	1178.719727	2514.450439	1249.260864	5.281090
276.293365	1155.964600	2532.654541	1249.260864	6.776854
276.668640	1158.240112	2377.919189	1363.036987	16.791046
277.043854	1087.698975	2421.154053	1328.904175	18.088737
277.419037	1215.128052	2503.072998	1338.006226	9.540639
277.794189	1194.648438	2564.511963	1281.118164	6.312288
278.169312	1183.270874	2625.950928	1303.873413	8.359618
278.544373	1115.005249	2539.481201	1258.363037	10.063897
278.919464	1251.536499	2491.695313	1249.260864	-0.183495
279.294464	1151.413574	2553.134277	1267.465088	8.279218
279.669464	1133.209351	2498.521729	1283.393677	10.999997
280.044403	1146.862427	2466.664551	1292.495850	11.034490
280.419312	1190.097412	2414.327637	1317.526489	10.408915
280.794189	1167.342163	2582.716064	1292.495850	8.842447
281.169037	1158.240112	2559.960938	1258.363037	7.142858
281.543854	1196.923950	2591.818115	1297.046875	7.177815
281.918671	1196.923950	2716.971924	1285.669312	5.838326
282.293365	1171.893188	2883.084961	1303.873413	7.712767
282.668091	1206.026001	2880.809326	1292.495850	5.163047
283.042786	1192.372925	2949.074951	1383.516602	10.880825
283.417419	1192.372925	3076.504150	1299.322388	5.676328
283.792053	1217.403687	2949.074951	1372.139038	8.935608
284.166595	1221.954712	2773.859863	1356.210449	8.651028
284.541138	1126.382813	2801.166016	1367.588013	14.402175
284.915619	1199.199463	2835.298828	1342.557251	8.762169
285.290100	1101.352051	2880.809326	1426.751587	18.286448
285.664520	1167.342163	2949.074951	1413.098389	13.793102
286.038940	1160.515625	2953.625977	1403.996338	13.578680
286.413300	1167.342163	2983.207764	1360.761475	10.651631
286.787628	1135.484863	3242.617188	1419.924927	13.498918
287.161896	1190.097412	3342.739990	1369.863525	8.350950
287.536194	1217.403687	3315.433838	1392.618774	8.351409
287.910400	1137.760376	3183.453613	1472.261963	16.351503
288.284607	1190.097412	3008.238525	1349.383789	8.760947
288.658752	1142.311401	2924.044189	1403.996338	14.687103
289.032867	1165.066650	2796.614990	1476.812988	19.107391
289.406921	1137.760376	2976.381104	1449.506714	16.955446
289.781006	1067.219238	2867.156250	1442.680176	20.859671
290.154999	1155.964600	2930.870850	1499.568237	19.358974
290.529022	1162.791138	2971.830078	1451.782227	15.974841
290.902954	1149.138062	3178.902588	1454.057739	15.022416
291.276825	1185.546387	3162.973877	1554.180664	18.642113
291.650757	1133.209351	3376.872803	1570.109375	19.472618
292.024597	1201.474976	3269.923340	1465.435425	12.761279
292.398407	1174.168701	3208.484375	1540.527588	18.008949
292.772156	1185.546387	3060.575439	1647.477051	24.635920
293.145905	1199.199463	3081.055176	1590.588989	20.798063
293.519592	1146.862427	3003.687500	1556.456177	22.058823
293.893280	1167.342163	3001.411865	1481.364014	17.121588
294.266907	1203.750488	3094.708252	1474.537476	14.320097
294.640533	1128.658325	3188.004639	1549.629639	20.441988
295.014069	1128.658325	3365.495361	1572.384888	19.837233
295.387604	1144.586914	3379.148438	1647.477051	22.505093
295.761078	1196.923950	3558.914551	1629.272949	18.304432
296.134552	1176.444214	3502.026611	1606.517700	18.493151
296.507996	1212.852539	3476.995850	1576.935913	16.080402
296.881378	1242.434326	3476.995850	1604.242188	16.191448
297.254730	1160.515625	3647.659912	1704.365112	21.866423
297.628021	1221.954712	3957.130615	1765.804199	19.883530
298.001282	1194.648438	3866.109863	1729.395752	20.017033
298.374573	1176.444214	3963.957275	1731.671387	19.918369
298.747803	1108.178589	3727.302979	1686.160889	22.067768
299.121002	1155.964600	3709.098877	1633.823975	18.716578
299.494141	1162.791138	3536.159424	1658.854614	20.901245
299.867188	1115.005249	3602.149414	1715.742676	24.153706
300.240265	1176.444214	3483.822266	1702.089600	22.781071
300.613312	1124.107300	3333.637939	1608.793213	21.936148
300.986328	1149.138062	3308.607178	1588.313477	20.337193
301.359314	1206.026001	3374.597412	1556.456177	16.159494
301.732239	1215.128052	3283.576416	1540.527588	15.731578
302.105103	1169.617676	3231.239502	1617.895264	21.743929
302.477997	1183.270874	3281.301025	1565.558350	18.221256
302.850830	1140.035889	3322.260254	1608.793213	21.480711
303.223602	1133.209351	3210.759766	1463.159912	15.881712
303.596375	1196.923950	3108.361328	1590.588989	20.595236
303.969116	1087.698975	3065.126465	1638.375000	27.848103
304.341766	1196.923950	3026.442627	1538.252075	18.656717
304.714478	1135.484863	3140.218750	1529.150024	19.636780
305.087067	1196.923950	2987.758789	1574.660400	21.092758
305.459656	1201.474976	3233.515137	1570.109375	18.141098
305.832214	1208.301514	3128.841064	1586.037964	19.668247
306.204681	1171.893188	3147.045166	1586.037964	20.967743
306.577148	1185.546387	3069.677490	1606.517700	22.342995
306.949646	1174.168701	3124.290039	1604.242188	22.053679
307.322021	1185.546387	3074.228516	1561.007324	19.879520
307.694397	1210.577026	3149.320801	1556.456177	17.840374
308.066742	1144.586914	3165.249512	1520.047852	18.581079
308.439026	1133.209351	3156.147461	1540.527588	20.134983
308.811279	1130.933838	3342.739990	1524.598877	17.798351
309.183502	1176.444214	3376.872803	1574.660400	18.097210
309.555695	1117.280762	3429.209961	1647.477051	22.933067
309.927887	1192.372925	3445.138428	1645.201538	20.101009
310.299988	1171.893188	3422.383301	1604.242188	19.211325
310.672058	1194.648438	3495.199951	1649.752563	19.782393
311.044128	1210.577026	3524.781738	1688.436401	20.648968
311.416168	1212.852539	3497.475586	1670.232300	20.019922
311.788147	1185.546387	3470.169189	1595.140137	17.928288
312.160065	1258.363037	3506.577637	1695.262939	19.433193
312.531982	1233.332275	3506.577637	1567.833862	14.714715
312.903870	1194.648438	3379.148438	1640.650513	20.416666
313.275696	1199.199463	3345.015625	1642.926025	20.678684
313.647491	1144.586914	3356.393066	1652.028076	22.942389
314.019318	1165.066650	3276.750000	1611.068726	21.120689
314.391022	1237.883301	3299.505127	1620.170776	18.543045
314.762726	1158.240112	3331.362549	1533.701050	17.277485
315.134369	1194.648438	3604.425049	1702.089600	21.057602
315.505981	1160.515625	3572.567627	1629.272949	19.433964
315.877594	1171.893188	3690.894775	1652.028076	19.060524
316.249146	1115.005249	3558.914551	1606.517700	20.111731
316.620636	1196.923950	3322.260254	1674.783325	22.483940
316.992157	1140.035889	3345.015625	1640.650513	22.703819
317.363586	1185.546387	3190.280273	1554.180664	18.388189
317.735016	1206.026001	3201.657715	1592.864502	19.384264
318.106354	1206.026001	3156.147461	1579.211426	19.136522
