Jaz Data File
++++++++++++++++++++++++++++++++++++
Date: Wed Feb 07 06:51:38 2024
User: jaz
Dark Spectrum Present: Yes
Reference Spectrum Present: Yes
Processed Spectrum Present: Yes
Spectrometers: JAZA3692
Integration Time (usec): 42900 (JAZA3692)
Spectra Averaged: 1 (JAZA3692)
Boxcar Smoothing: 0 (JAZA3692)
Correct for Electrical Dark: No (JAZA3692)
Strobe/Lamp Enabled: Yes (JAZA3692)
Correct for Detector Non-linearity: No (JAZA3692)
Correct for Stray Light: No (JAZA3692)
Number of Pixels in Processed Spectrum: 2048
>>>>>Begin Processed Spectral Data<<<<<
W	D	R	S	P
190.244385	0.000000	0.000000	0.000000	0.000000
190.627136	0.000000	0.000000	0.000000	0.000000
191.009842	907.932800	948.892151	907.932800	0.000000
191.392532	985.300537	1028.535400	930.687988	-126.315994
191.775177	917.034912	967.096313	980.749451	127.272781
192.157791	989.851563	903.381775	926.136963	73.684235
192.540390	992.127075	917.034912	896.555176	127.272804
192.922943	905.657288	1001.229126	951.167725	47.619087
193.305481	1003.504700	1035.361938	960.269775	-135.714600
193.687958	1010.331238	1023.984375	912.483826	-716.666138
194.070419	948.892151	1019.433350	928.412476	-29.032219
194.452866	1064.943726	928.412476	973.922913	66.666649
194.835251	1030.810913	1012.606750	914.759338	637.500183
195.217621	1008.055725	976.198425	898.830688	342.857178
195.599960	1039.912964	1003.504700	985.300537	150.000076
195.982254	1080.872437	976.198425	969.371887	106.521713
196.364517	1033.086426	971.647400	955.718750	125.925949
196.746750	962.545288	1003.504700	978.473938	38.888863
197.128952	1014.882263	994.402588	1012.606750	11.111078
197.511139	1067.219238	1001.229126	937.514587	196.551651
197.893280	992.127075	1010.331238	1039.912964	262.499786
198.275391	998.953613	935.239075	1014.882263	-25.000025
198.657471	1001.229126	1003.504700	942.065613	-2599.938232
199.039520	1049.015137	967.096313	1021.708862	33.333332
199.421539	948.892151	1037.637451	1069.494751	135.897446
199.803513	967.096313	973.922913	951.167725	-233.331253
200.185471	1001.229126	948.892151	1008.055725	-13.043550
200.567383	1010.331238	1010.331238	996.678101	0.000000
200.949265	989.851563	989.851563	996.678101	0.000000
201.331131	930.687988	1044.463989	964.820801	30.000011
201.712967	946.616638	1037.637451	989.851563	47.500042
202.094742	976.198425	1030.810913	923.861450	-95.833344
202.476517	980.749451	1026.259888	939.790100	-89.999908
202.858231	957.994263	1055.841675	953.443237	-4.651145
203.239944	969.371887	994.402588	1051.290649	327.273163
203.621582	955.718750	935.239075	957.994263	-11.111078
204.003235	937.514587	969.371887	960.269775	71.428490
204.384827	935.239075	1019.433350	912.483826	-27.027075
204.766388	937.514587	1017.157776	1023.984375	108.571480
205.147934	985.300537	1039.912964	1033.086426	87.500031
205.529449	1021.708862	953.443237	1014.882263	10.000053
205.910904	976.198425	1044.463989	939.790100	-53.333370
206.292343	948.892151	1019.433350	948.892151	0.000000
206.673767	930.687988	992.127075	942.065613	18.518545
207.055115	998.953613	980.749451	937.514587	337.499878
207.436462	1010.331238	1012.606750	905.657288	-4600.016113
207.817780	1014.882263	1069.494751	955.718750	-108.333305
208.199051	967.096313	976.198425	973.922913	75.000168
208.580307	994.402588	983.024963	978.473938	139.999786
208.961517	928.412476	971.647400	939.790100	26.315819
209.342712	983.024963	987.576050	873.799988	-2399.975830
209.723846	976.198425	989.851563	932.963501	-316.666595
210.104965	1096.801025	1069.494751	953.443237	524.999451
210.486069	955.718750	1074.045776	1001.229126	38.461521
210.867111	985.300537	1044.463989	969.371887	-26.923124
211.248123	962.545288	1046.739624	978.473938	18.918909
211.629120	962.545288	998.953613	951.167725	-31.249895
212.010071	994.402588	1044.463989	955.718750	-77.272781
212.390991	951.167725	1026.259888	987.576050	48.484852
212.771881	983.024963	923.861450	980.749451	3.846142
213.152756	962.545288	992.127075	912.483826	-169.230682
213.533569	962.545288	944.341125	1012.606750	-275.000092
213.914368	930.687988	960.269775	930.687988	0.000000
214.295135	989.851563	985.300537	935.239075	1200.004028
214.675858	989.851563	928.412476	960.269775	48.148155
215.056549	978.473938	992.127075	983.024963	33.333183
215.437225	1019.433350	978.473938	1008.055725	27.777803
215.817841	978.473938	1071.770264	937.514587	-43.902428
216.198441	1010.331238	985.300537	917.034912	372.727570
216.579025	928.412476	1028.535400	983.024963	54.545437
216.959549	1053.566162	1017.157776	951.167725	281.249603
217.340057	973.922913	1012.606750	1005.780212	82.352997
217.720535	1003.504700	1008.055725	907.932800	-2100.008057
218.100967	1003.504700	1001.229126	910.208313	4099.906250
218.481369	994.402588	987.576050	973.922913	300.000885
218.861740	1003.504700	1067.219238	971.647400	-50.000050
219.242065	955.718750	978.473938	869.248962	-380.000336
219.622391	969.371887	1019.433350	926.136963	-86.363686
220.002670	994.402588	1012.606750	983.024963	-62.500126
220.382919	976.198425	962.545288	937.514587	283.332947
220.763123	932.963501	996.678101	944.341125	17.857170
221.143295	937.514587	1014.882263	983.024963	58.823502
221.523453	992.127075	1005.780212	985.300537	-49.999775
221.903549	957.994263	1003.504700	960.269775	4.999980
222.283630	1046.739624	1023.984375	1035.361938	50.000267
222.663696	976.198425	1035.361938	901.106262	-126.923096
223.043701	923.861450	978.473938	964.820801	74.999969
223.423676	978.473938	1033.086426	980.749451	4.166653
223.803635	967.096313	1012.606750	996.678101	65.000008
224.183548	928.412476	996.678101	930.687988	3.333321
224.563431	962.545288	1014.882263	896.555176	-126.086983
224.943283	946.616638	1008.055725	948.892151	3.703689
225.323105	937.514587	1058.117188	973.922913	30.188673
225.702881	1008.055725	1033.086426	976.198425	-127.272903
226.082642	919.310425	1026.259888	1003.504700	78.723419
226.462357	1017.157776	1035.361938	983.024963	-187.500046
226.842041	998.953613	967.096313	1001.229126	-7.142830
227.221695	926.136963	1019.433350	935.239075	9.756124
227.601318	937.514587	1021.708862	969.371887	37.837845
227.980911	989.851563	996.678101	962.545288	-400.001801
228.360474	976.198425	1021.708862	957.994263	-39.999973
228.739990	1028.535400	1135.484863	967.096313	-57.446838
229.119476	971.647400	1124.107300	937.514587	-22.388060
229.498932	1005.780212	1130.933838	994.402588	-9.090927
229.878372	996.678101	1187.821899	917.034912	-41.666634
230.257736	1008.055725	1212.852539	994.402588	-6.666675
230.637115	980.749451	1203.750488	964.820801	-7.142859
231.016449	992.127075	1128.658325	985.300537	-4.999982
231.395737	903.381775	1121.831787	978.473938	34.374989
231.774994	937.514587	1014.882263	930.687988	-8.823581
232.154221	964.820801	1146.862427	1014.882263	27.500008
232.533417	937.514587	1146.862427	948.892151	5.434765
232.912582	917.034912	1167.342163	914.759338	-0.909112
233.291702	928.412476	1115.005249	930.687988	1.219507
233.670792	996.678101	1119.556274	910.208313	-70.370338
234.049866	907.932800	1133.209351	962.545288	24.242420
234.428894	957.994263	1176.444214	955.718750	-1.041663
234.807892	973.922913	1183.270874	1042.188477	32.608658
235.186874	985.300537	1133.209351	948.892151	-24.615427
235.565781	967.096313	1212.852539	962.545288	-1.851845
235.944687	1028.535400	1185.546387	1012.606750	-10.144927
236.323547	948.892151	1256.087524	996.678101	15.555556
236.702377	926.136963	1201.474976	989.851563	23.140503
237.081177	980.749451	1174.168701	971.647400	-4.705866
237.459946	980.749451	1190.097412	964.820801	-7.608696
237.838669	942.065613	1165.066650	994.402588	23.469387
238.217361	928.412476	1256.087524	983.024963	16.666660
238.596039	994.402588	1208.301514	903.381775	-42.553188
238.974670	942.065613	1208.301514	892.004150	-18.803423
239.353271	957.994263	1224.230225	937.514587	-7.692302
239.731842	980.749451	1240.158813	967.096313	-5.263163
240.110367	919.310425	1158.240112	992.127075	30.476183
240.488876	928.412476	1237.883301	973.922913	14.705890
240.867340	964.820801	1253.812012	987.576050	7.874028
241.245789	1019.433350	1258.363037	1001.229126	-7.619071
241.624176	969.371887	1228.781250	955.718750	-5.263163
242.002548	957.994263	1467.710938	980.749451	4.464282
242.380890	1023.984375	1495.017212	985.300537	-8.212557
242.759186	1019.433350	1533.701050	983.024963	-7.079657
243.137451	932.963501	1592.864502	973.922913	6.206903
243.515686	971.647400	1658.854614	955.718750	-2.317882
243.893890	964.820801	1658.854614	998.953613	4.918033
244.272049	967.096313	1517.772339	1049.015137	14.876047
244.650192	889.728638	1606.517700	1042.188477	21.269833
245.028290	905.657288	1506.394775	1060.392700	25.757576
245.406357	960.269775	1492.741699	964.820801	0.854698
245.784393	955.718750	1447.231201	1014.882263	12.037032
246.162384	907.932800	1501.843750	1049.015137	23.754797
246.540359	948.892151	1592.864502	962.545288	2.120143
246.918289	955.718750	1615.619751	1069.494751	17.241375
247.296204	989.851563	1756.702026	1069.494751	10.385752
247.674057	973.922913	2066.172852	1003.504700	2.708335
248.051895	976.198425	2243.663574	1085.423462	8.617598
248.429703	948.892151	2352.888428	1140.035889	13.614262
248.807465	1010.331238	2336.959961	1062.668213	3.945111
249.185196	1019.433350	2095.754639	1099.076538	7.399574
249.562897	964.820801	1893.233276	1019.433350	5.882359
249.940567	1001.229126	1840.896362	1035.361938	4.065041
250.318192	1021.708862	1779.457275	1080.872437	7.807812
250.695801	994.402588	1649.752563	1062.668213	10.416667
251.073349	980.749451	1579.211426	1051.290649	11.787081
251.450882	955.718750	1501.843750	969.371887	2.500002
251.828400	1053.566162	1524.598877	944.341125	-23.188417
252.205872	987.576050	1565.558350	1044.463989	9.842505
252.583313	926.136963	1636.099487	1012.606750	12.179486
252.960693	980.749451	1722.569214	1042.188477	8.282204
253.338074	955.718750	1913.713013	1092.250000	14.251781
253.715408	1019.433350	1845.447388	1030.810913	1.377406
254.092682	923.861450	1665.681274	969.371887	6.134972
254.469955	989.851563	1654.303589	1062.668213	10.958902
254.847198	937.514587	1574.660400	1033.086426	14.999994
255.224365	1017.157776	1508.670288	1055.841675	7.870379
255.601563	910.208313	1506.394775	1042.188477	22.137398
255.978683	973.922913	1547.354126	1035.361938	10.714280
256.355743	976.198425	1499.568237	1019.433350	8.260875
256.732819	930.687988	1570.109375	971.647400	6.405699
257.109894	944.341125	1549.629639	1049.015137	17.293243
257.486877	1005.780212	1576.935913	1064.943726	10.358562
257.863831	1028.535400	1683.885376	1067.219238	5.902775
258.240753	1008.055725	1672.507813	1044.463989	5.479442
258.617645	1017.157776	1692.987427	1071.770264	8.080807
258.994507	1003.504700	1799.937012	1021.708862	2.285714
259.371307	980.749451	1836.345337	1155.964600	20.478727
259.748108	985.300537	2125.336426	1101.352051	10.179637
260.124878	998.953613	2314.204590	1165.066650	12.629760
260.501617	898.830688	2500.797363	1121.831787	13.920458
260.878296	919.310425	2803.441650	1185.546387	14.130436
261.254944	951.167725	2889.911377	1124.107300	8.920188
261.631561	989.851563	2864.880615	1137.760376	7.888348
262.008179	946.616638	2521.277100	1064.943726	7.514451
262.384735	960.269775	2168.571289	1133.209351	14.312617
262.761261	973.922913	2018.386963	1094.525513	11.546840
263.137695	926.136963	2027.489014	1099.076538	15.702479
263.514191	928.412476	1934.192627	1126.382813	19.683262
263.890594	996.678101	1970.601074	1112.729614	11.915882
264.267029	944.341125	1909.161987	1126.382813	18.867926
264.643341	978.473938	1875.029175	1135.484863	17.512688
265.019653	942.065613	1845.447388	1008.055725	7.304787
265.395935	992.127075	1831.794189	1115.005249	14.634153
265.772217	1017.157776	1863.651489	1099.076538	9.677422
266.148407	953.443237	1829.518677	1087.698975	15.324677
266.524597	992.127075	1970.601074	1005.780212	1.395350
266.900726	926.136963	2029.764526	1017.157776	8.247421
267.276855	967.096313	2004.733887	1055.841675	8.552636
267.652924	967.096313	2241.387939	1053.566162	6.785719
268.028992	953.443237	2168.571289	1044.463989	7.490631
268.404999	955.718750	2118.509766	1037.637451	7.045006
268.781006	894.279663	2111.683350	1028.535400	11.028038
269.156921	980.749451	2125.336426	1017.157776	3.180914
269.532837	973.922913	2170.846924	1105.903076	11.026611
269.908661	953.443237	2086.652588	998.953613	4.016061
270.284546	892.004150	2143.540527	1051.290649	12.727277
270.660339	1023.984375	2148.091553	1071.770264	4.251008
271.036133	937.514587	2141.265137	1067.219238	10.775044
271.411835	944.341125	2364.266113	1046.739624	7.211543
271.787537	969.371887	2448.460449	1087.698975	8.000000
272.163239	967.096313	2616.848877	1146.862427	10.896550
272.538849	1035.361938	2780.686523	1133.209351	5.606259
272.914459	987.576050	2812.543701	1042.188477	2.992515
273.290070	980.749451	2632.777588	1119.556274	8.402207
273.665588	944.341125	2491.695313	1105.903076	10.441175
274.041046	996.678101	2537.205811	1140.035889	9.305758
274.416565	1010.331238	2441.633789	1151.413574	9.856919
274.791962	1005.780212	2389.296875	1083.147949	5.592108
275.167389	971.647400	2316.480225	1101.352051	9.644668
275.542755	983.024963	2402.949951	1069.494751	6.089743
275.918060	989.851563	2245.938965	1103.627563	9.057968
276.293365	1005.780212	2336.959961	1087.698975	6.153847
276.668640	976.198425	2475.766602	1117.280762	9.408198
277.043854	1023.984375	2489.419678	1142.311401	8.074531
277.419037	937.514587	2514.450439	1071.770264	8.513706
277.794189	964.820801	2439.358398	1092.250000	8.641977
278.169312	971.647400	2491.695313	1140.035889	11.077842
278.544373	976.198425	2514.450439	1099.076538	7.988165
278.919464	930.687988	2509.899414	1171.893188	15.273775
279.294464	935.239075	2330.133301	1115.005249	12.887441
279.669464	985.300537	2459.837891	1076.321289	6.172834
280.044403	1012.606750	2380.194824	1112.729614	7.321127
280.419312	944.341125	2437.082764	1094.525513	10.060976
280.794189	1019.433350	2430.256104	1151.413574	9.354841
281.169037	1037.637451	2559.960938	1051.290649	0.896866
281.543854	998.953613	2553.134277	1080.872437	5.270869
281.918671	980.749451	2589.542725	1099.076538	7.355021
282.293365	987.576050	2869.431641	1151.413574	8.706169
282.668091	926.136963	2878.533936	1174.168701	12.703960
283.042786	978.473938	3003.687500	1080.872437	5.056182
283.417419	967.096313	3005.962891	1112.729614	7.142856
283.792053	980.749451	2889.911377	1094.525513	5.959477
284.166595	973.922913	2937.697266	1115.005249	7.184244
284.541138	960.269775	2785.237549	1055.841675	5.236909
284.915619	998.953613	2939.972900	1160.515625	8.323565
285.290100	1055.841675	2921.768799	1096.801025	2.195121
285.664520	996.678101	2894.462402	1165.066650	8.872903
286.038940	930.687988	2935.421875	1162.791138	11.577754
286.413300	987.576050	3140.218750	1217.403687	10.676535
286.787628	896.555176	3165.249512	1210.577026	13.841523
287.161896	955.718750	3219.861816	1228.781250	12.060303
287.536194	1001.229126	3304.056152	1153.689087	6.620556
287.910400	987.576050	3137.943115	1210.577026	10.370367
288.284607	937.514587	3074.228516	1208.301514	12.673055
288.658752	955.718750	2935.421875	1219.679199	13.333335
289.032867	971.647400	2814.819336	1246.985352	14.938268
289.406921	1005.780212	2851.227539	1242.434326	12.823672
289.781006	912.483826	2853.503174	1244.709839	17.116060
290.154999	1008.055725	2878.533936	1333.455200	17.396591
290.529022	1003.504700	3169.800537	1294.771362	13.445377
290.902954	910.208313	3112.912354	1253.812012	15.599176
291.276825	1026.259888	3253.994629	1303.873413	12.461695
291.650757	985.300537	3331.362549	1353.934937	15.712901
292.024597	960.269775	3297.229736	1281.118164	13.729306
292.398407	962.545288	3265.372314	1365.312500	17.490120
292.772156	969.371887	3119.739014	1347.108276	17.566133
293.145905	978.473938	3115.187988	1331.179688	16.506924
293.519592	989.851563	2969.554688	1324.353149	16.896553
293.893280	1037.637451	3053.749023	1301.597900	13.092551
294.266907	917.034912	3110.636963	1258.363037	15.560166
294.640533	980.749451	3294.954102	1365.312500	16.617504
295.014069	978.473938	3249.443604	1422.200562	19.539082
295.387604	1001.229126	3547.536865	1422.200562	16.532623
295.761078	1019.433350	3588.496338	1460.884399	17.183348
296.134552	967.096313	3465.618164	1517.772339	22.040071
296.507996	967.096313	3547.536865	1444.955688	18.518520
296.881378	923.861450	3549.812500	1426.751587	19.150780
297.254730	939.790100	3729.578613	1510.945801	20.473082
297.628021	1028.535400	3988.988037	1485.915039	15.449653
298.001282	953.443237	4034.498291	1526.874512	18.611523
298.374573	1019.433350	4091.386475	1540.527588	16.962961
298.747803	1001.229126	3909.344727	1554.180664	19.014084
299.121002	998.953613	3747.782715	1542.803101	19.784769
299.494141	885.177612	3602.149414	1419.924927	19.681740
299.867188	1001.229126	3565.741211	1474.537476	18.456078
300.240265	1001.229126	3388.250488	1469.986450	19.637751
300.613312	969.371887	3367.770752	1469.986450	20.872864
300.986328	1026.259888	3345.015625	1447.231201	18.155050
301.359314	987.576050	3203.933350	1433.578125	20.123201
301.732239	951.167725	3140.218750	1413.098389	21.101868
302.105103	921.585938	3265.372314	1369.863525	19.126213
302.477997	953.443237	3188.004639	1444.955688	21.995924
302.850830	1003.504700	3367.770752	1426.751587	17.901829
303.223602	1008.055725	3135.667725	1353.934937	16.256685
303.596375	1051.290649	3208.484375	1397.169800	16.033754
303.969116	973.922913	3071.953125	1383.516602	19.522774
304.341766	987.576050	3076.504150	1367.588013	18.191719
304.714478	980.749451	3156.147461	1394.894287	19.037659
305.087067	944.341125	3162.973877	1383.516602	19.794870
305.459656	989.851563	3144.769775	1390.343262	18.585007
305.832214	1003.504700	3172.075928	1410.822876	18.782789
306.204681	971.647400	3040.095703	1417.649414	21.562155
306.577148	907.932800	3056.024414	1429.027100	24.258476
306.949646	998.953613	3140.218750	1429.027100	20.085018
307.322021	921.585938	3167.524902	1408.547363	21.681864
307.694397	935.239075	3126.565674	1440.404663	23.052958
308.066742	1019.433350	3053.749023	1422.200562	19.798658
308.439026	980.749451	3324.535889	1378.965576	16.990292
308.811279	1001.229126	3217.586426	1419.924927	18.891169
309.183502	998.953613	3417.832275	1429.027100	17.779871
309.555695	946.616638	3481.546875	1485.915039	21.274685
309.927887	951.167725	3415.556641	1413.098389	18.744228
310.299988	1023.984375	3556.638916	1438.129150	16.352201
310.672058	942.065613	3499.750977	1454.057739	20.017792
311.044128	946.616638	3558.914551	1433.578125	18.641117
311.416168	914.759338	3654.486328	1383.516602	17.109634
311.788147	942.065613	3636.282227	1508.670288	21.030405
312.160065	967.096313	3615.802490	1435.853638	17.697598
312.531982	944.341125	3549.812500	1349.383789	15.545850
312.903870	992.127075	3433.760986	1449.506714	18.732525
313.275696	948.892151	3417.832275	1497.292725	22.211983
313.647491	1014.882263	3319.984863	1426.751587	17.867722
314.019318	1001.229126	3404.179199	1435.853638	18.087122
314.391022	1017.157776	3415.556641	1408.547363	16.318787
314.762726	1003.504700	3445.138428	1447.231201	18.173344
315.134369	989.851563	3563.465576	1422.200562	16.799295
315.505981	937.514587	3699.996826	1438.129150	18.121910
315.877594	976.198425	3759.160400	1447.231201	16.925592
316.249146	1049.015137	3593.047363	1442.680176	15.474059
316.620636	928.412476	3467.893799	1385.792114	18.010750
316.992157	973.922913	3276.750000	1410.822876	18.972330
317.363586	896.555176	3290.403076	1331.179688	18.155895
317.735016	985.300537	3256.270264	1356.210449	16.332666
318.106354	960.269775	3304.056152	1360.761475	17.087381
318.477722	1026.259888	3347.291016	1360.761475	14.411766
318.849060	919.310425	3253.994629	1385.792114	19.980505
319.220306	910.208313	3244.892578	1267.465088	15.302145
319.591522	1014.882263	3442.863037	1385.792114	15.276474
319.962738	985.300537	3454.240479	1394.894287	16.589863
320.333923	944.341125	3304.056152	1369.863525	18.032787
320.705017	1042.188477	3310.882813	1401.720825	15.847545
321.076111	998.953613	3329.086914	1306.148926	13.183594
