Jaz Data File
++++++++++++++++++++++++++++++++++++
Date: Wed Feb 07 06:51:45 2024
User: jaz
Dark Spectrum Present: Yes
Reference Spectrum Present: Yes
Processed Spectrum Present: Yes
Spectrometers: JAZA3692
Integration Time (usec): 42900 (JAZA3692)
Spectra Averaged: 1 (JAZA3692)
Boxcar Smoothing: 0 (JAZA3692)
Correct for Electrical Dark: No (JAZA3692)
Strobe/Lamp Enabled: Yes (JAZA3692)
Correct for Detector Non-linearity: No (JAZA3692)
Correct for Stray Light: No (JAZA3692)
Number of Pixels in Processed Spectrum: 2048
>>>>>Begin Processed Spectral Data<<<<<
W	D	R	S	P
190.244385	0.000000	0.000000	0.000000	0.000000
190.627136	0.000000	0.000000	0.000000	0.000000
191.009842	907.932800	948.892151	985.300537	188.889069
191.392532	985.300537	1028.535400	876.075500	-252.631851
191.775177	917.034912	967.096313	912.483826	-9.091009
192.157791	989.851563	903.381775	978.473938	13.157919
192.540390	992.127075	917.034912	946.616638	60.606106
192.922943	905.657288	1001.229126	1019.433350	119.047684
193.305481	1003.504700	1035.361938	951.167725	-164.285980
193.687958	1010.331238	1023.984375	1033.086426	166.666367
194.070419	948.892151	1019.433350	978.473938	41.935474
194.452866	1064.943726	928.412476	951.167725	83.333305
194.835251	1030.810913	1012.606750	989.851563	224.999924
195.217621	1008.055725	976.198425	901.106262	335.714142
195.599960	1039.912964	1003.504700	969.371887	193.750183
195.982254	1080.872437	976.198425	948.892151	126.086967
196.364517	1033.086426	971.647400	955.718750	125.925949
196.746750	962.545288	1003.504700	992.127075	72.222198
197.128952	1014.882263	994.402588	1001.229126	66.666763
197.511139	1067.219238	1001.229126	980.749451	131.034454
197.893280	992.127075	1010.331238	942.065613	-275.000092
198.275391	998.953613	935.239075	917.034912	128.571442
198.657471	1001.229126	1003.504700	1033.086426	1399.967773
199.039520	1049.015137	967.096313	857.871338	233.333191
199.421539	948.892151	1037.637451	928.412476	-23.076912
199.803513	967.096313	973.922913	1003.504700	533.331238
200.185471	1001.229126	948.892151	919.310425	156.521652
200.567383	1010.331238	1010.331238	960.269775	0.000000
200.949265	989.851563	989.851563	980.749451	0.000000
201.331131	930.687988	1044.463989	1019.433350	78.000069
201.712967	946.616638	1037.637451	951.167725	5.000050
202.094742	976.198425	1030.810913	1014.882263	70.833321
202.476517	980.749451	1026.259888	928.412476	-114.999939
202.858231	957.994263	1055.841675	871.524475	-88.372078
203.239944	969.371887	994.402588	987.576050	72.727341
203.621582	955.718750	935.239075	973.922913	-88.888924
204.003235	937.514587	969.371887	1017.157776	249.999802
204.384827	935.239075	1019.433350	960.269775	29.729694
204.766388	937.514587	1017.157776	942.065613	5.714268
205.147934	985.300537	1039.912964	955.718750	-54.166771
205.529449	1021.708862	953.443237	882.902100	203.333328
205.910904	976.198425	1044.463989	937.514587	-56.666695
206.292343	948.892151	1019.433350	983.024963	48.387062
206.673767	930.687988	992.127075	894.279663	-59.259224
207.055115	998.953613	980.749451	957.994263	224.999924
207.436462	1010.331238	1012.606750	980.749451	-1300.005371
207.817780	1014.882263	1069.494751	944.341125	-129.166687
208.199051	967.096313	976.198425	955.718750	-124.999161
208.580307	994.402588	983.024963	948.892151	399.999451
208.961517	928.412476	971.647400	919.310425	-21.052542
209.342712	983.024963	987.576050	944.341125	-849.991272
209.723846	976.198425	989.851563	967.096313	-66.666817
210.104965	1096.801025	1069.494751	935.239075	591.666016
210.486069	955.718750	1074.045776	910.208313	-38.461575
210.867111	985.300537	1044.463989	985.300537	0.000000
211.248123	962.545288	1046.739624	973.922913	13.513527
211.629120	962.545288	998.953613	901.106262	-168.749939
212.010071	994.402588	1044.463989	910.208313	-168.182022
212.390991	951.167725	1026.259888	948.892151	-3.030375
212.771881	983.024963	923.861450	935.239075	80.769188
213.152756	962.545288	992.127075	967.096313	15.384552
213.533569	962.545288	944.341125	964.820801	-12.499958
213.914368	930.687988	960.269775	919.310425	-38.461380
214.295135	989.851563	985.300537	973.922913	350.001343
214.675858	989.851563	928.412476	944.341125	74.074081
215.056549	978.473938	992.127075	919.310425	-433.332733
215.437225	1019.433350	978.473938	957.994263	149.999924
215.817841	978.473938	1071.770264	928.412476	-53.658558
216.198441	1010.331238	985.300537	980.749451	118.182014
216.579025	928.412476	1028.535400	921.585938	-6.818157
216.959549	1053.566162	1017.157776	967.096313	237.499817
217.340057	973.922913	1012.606750	942.065613	-82.352997
217.720535	1003.504700	1008.055725	937.514587	-1450.005371
218.100967	1003.504700	1001.229126	967.096313	1599.965088
218.481369	994.402588	987.576050	1012.606750	-266.667572
218.861740	1003.504700	1067.219238	978.473938	-39.285793
219.242065	955.718750	978.473938	921.585938	-150.000137
219.622391	969.371887	1019.433350	955.718750	-27.272749
220.002670	994.402588	1012.606750	882.902100	-612.499939
220.382919	976.198425	962.545288	930.687988	333.333191
220.763123	932.963501	996.678101	994.402588	96.428589
221.143295	937.514587	1014.882263	926.136963	-14.705914
221.523453	992.127075	1005.780212	914.759338	-566.666382
221.903549	957.994263	1003.504700	882.902100	-164.999878
222.283630	1046.739624	1023.984375	946.616638	439.999512
222.663696	976.198425	1035.361938	932.963501	-73.077003
223.043701	923.861450	978.473938	944.341125	37.499985
223.423676	978.473938	1033.086426	1033.086426	100.000000
223.803635	967.096313	1012.606750	976.198425	20.000053
224.183548	928.412476	996.678101	994.402588	96.666679
224.563431	962.545288	1014.882263	992.127075	56.521774
224.943283	946.616638	1008.055725	946.616638	0.000000
225.323105	937.514587	1058.117188	1019.433350	67.924538
225.702881	1008.055725	1033.086426	860.146851	-590.909851
226.082642	919.310425	1026.259888	969.371887	46.808521
226.462357	1017.157776	1035.361938	987.576050	-162.499786
226.842041	998.953613	967.096313	948.892151	157.142822
227.221695	926.136963	1019.433350	944.341125	19.512184
227.601318	937.514587	1021.708862	948.892151	13.513465
227.980911	989.851563	996.678101	962.545288	-400.001801
228.360474	976.198425	1021.708862	985.300537	20.000053
228.739990	1028.535400	1135.484863	942.065613	-80.851074
229.119476	971.647400	1124.107300	942.065613	-19.402996
229.498932	1005.780212	1130.933838	960.269775	-36.363659
229.878372	996.678101	1187.821899	917.034912	-41.666634
230.257736	1008.055725	1212.852539	932.963501	-36.666695
230.637115	980.749451	1203.750488	898.830688	-36.734699
231.016449	992.127075	1128.658325	962.545288	-21.666679
231.395737	903.381775	1121.831787	946.616638	19.791651
231.774994	937.514587	1014.882263	948.892151	14.705836
232.154221	964.820801	1146.862427	1005.780212	22.500025
232.533417	937.514587	1146.862427	894.279663	-20.652195
232.912582	917.034912	1167.342163	996.678101	31.818171
233.291702	928.412476	1115.005249	1026.259888	52.439014
233.670792	996.678101	1119.556274	948.892151	-38.888882
234.049866	907.932800	1133.209351	951.167725	19.191933
234.428894	957.994263	1176.444214	935.239075	-10.416659
234.807892	973.922913	1183.270874	955.718750	-8.695648
235.186874	985.300537	1133.209351	1064.943726	53.846142
235.565781	967.096313	1212.852539	973.922913	2.777793
235.944687	1028.535400	1185.546387	976.198425	-33.333321
236.323547	948.892151	1256.087524	855.595825	-30.370356
236.702377	926.136963	1201.474976	992.127075	23.966946
237.081177	980.749451	1174.168701	928.412476	-27.058825
237.459946	980.749451	1190.097412	964.820801	-7.608696
237.838669	942.065613	1165.066650	937.514587	-2.040809
238.217361	928.412476	1256.087524	939.790100	3.472228
238.596039	994.402588	1208.301514	960.269775	-15.957449
238.974670	942.065613	1208.301514	976.198425	12.820515
239.353271	957.994263	1224.230225	942.065613	-5.982907
239.731842	980.749451	1240.158813	957.994263	-8.771922
240.110367	919.310425	1158.240112	912.483826	-2.857158
240.488876	928.412476	1237.883301	985.300537	18.382366
240.867340	964.820801	1253.812012	962.545288	-0.787399
241.245789	1019.433350	1258.363037	980.749451	-16.190495
241.624176	969.371887	1228.781250	928.412476	-15.789489
242.002548	957.994263	1467.710938	1023.984375	12.946430
242.380890	1023.984375	1495.017212	957.994263	-14.009663
242.759186	1019.433350	1533.701050	1042.188477	4.424763
243.137451	932.963501	1592.864502	928.412476	-0.689653
243.515686	971.647400	1658.854614	946.616638	-3.642389
243.893890	964.820801	1658.854614	939.790100	-3.606554
244.272049	967.096313	1517.772339	1055.841675	16.115711
244.650192	889.728638	1606.517700	1017.157776	17.777773
245.028290	905.657288	1506.394775	914.759338	1.515146
245.406357	960.269775	1492.741699	989.851563	5.555558
245.784393	955.718750	1447.231201	964.820801	1.851845
246.162384	907.932800	1501.843750	996.678101	14.942527
246.540359	948.892151	1592.864502	1010.331238	9.540641
246.918289	955.718750	1615.619751	1012.606750	8.620687
247.296204	989.851563	1756.702026	1023.984375	4.451039
247.674057	973.922913	2066.172852	1069.494751	8.749996
248.051895	976.198425	2243.663574	1010.331238	2.692998
248.429703	948.892151	2352.888428	1026.259888	5.510537
248.807465	1010.331238	2336.959961	1026.259888	1.200686
249.185196	1019.433350	2095.754639	998.953613	-1.902753
249.562897	964.820801	1893.233276	964.820801	0.000000
249.940567	1001.229126	1840.896362	978.473938	-2.710025
250.318192	1021.708862	1779.457275	1019.433350	-0.300299
250.695801	994.402588	1649.752563	937.514587	-8.680552
251.073349	980.749451	1579.211426	962.545288	-3.041824
251.450882	955.718750	1501.843750	983.024963	4.999993
251.828400	1053.566162	1524.598877	987.576050	-14.009666
252.205872	987.576050	1565.558350	951.167725	-6.299211
252.583313	926.136963	1636.099487	962.545288	5.128204
252.960693	980.749451	1722.569214	976.198425	-0.613495
253.338074	955.718750	1913.713013	957.994263	0.237529
253.715408	1019.433350	1845.447388	951.167725	-8.264463
254.092682	923.861450	1665.681274	967.096313	5.828216
254.469955	989.851563	1654.303589	989.851563	0.000000
254.847198	937.514587	1574.660400	957.994263	3.214284
255.224365	1017.157776	1508.670288	1026.259888	1.851858
255.601563	910.208313	1506.394775	1033.086426	20.610685
255.978683	973.922913	1547.354126	1058.117188	14.682541
256.355743	976.198425	1499.568237	998.953613	4.347822
256.732819	930.687988	1570.109375	1053.566162	19.217089
257.109894	944.341125	1549.629639	973.922913	4.887221
257.486877	1005.780212	1576.935913	1003.504700	-0.398405
257.863831	1028.535400	1683.885376	964.820801	-9.722225
258.240753	1008.055725	1672.507813	989.851563	-2.739725
258.617645	1017.157776	1692.987427	967.096313	-7.407408
258.994507	1003.504700	1799.937012	1019.433350	2.000000
259.371307	980.749451	1836.345337	967.096313	-1.595746
259.748108	985.300537	2125.336426	923.861450	-5.389224
260.124878	998.953613	2314.204590	1023.984375	1.903117
260.501617	898.830688	2500.797363	1008.055725	6.818184
260.878296	919.310425	2803.441650	1021.708862	5.434783
261.254944	951.167725	2889.911377	1085.423462	6.924883
261.631561	989.851563	2864.880615	1021.708862	1.699030
262.008179	946.616638	2521.277100	1003.504700	3.612719
262.384735	960.269775	2168.571289	1028.535400	5.649718
262.761261	973.922913	2018.386963	989.851563	1.525055
263.137695	926.136963	2027.489014	948.892151	2.066114
263.514191	928.412476	1934.192627	1051.290649	12.217200
263.890594	996.678101	1970.601074	971.647400	-2.570090
264.267029	944.341125	1909.161987	985.300537	4.245286
264.643341	978.473938	1875.029175	976.198425	-0.253806
265.019653	942.065613	1845.447388	983.024963	4.534002
265.395935	992.127075	1831.794189	1014.882263	2.710025
265.772217	1017.157776	1863.651489	1028.535400	1.344088
266.148407	953.443237	1829.518677	960.269775	0.779218
266.524597	992.127075	1970.601074	1044.463989	5.348830
266.900726	926.136963	2029.764526	1017.157776	8.247421
267.276855	967.096313	2004.733887	1026.259888	5.701757
267.652924	967.096313	2241.387939	935.239075	-2.499996
268.028992	953.443237	2168.571289	1001.229126	3.932580
268.404999	955.718750	2118.509766	996.678101	3.522503
268.781006	894.279663	2111.683350	1060.392700	13.644860
269.156921	980.749451	2125.336426	994.402588	1.192844
269.532837	973.922913	2170.846924	998.953613	2.091252
269.908661	953.443237	2086.652588	926.136963	-2.409641
270.284546	892.004150	2143.540527	1019.433350	10.181822
270.660339	1023.984375	2148.091553	1035.361938	1.012142
271.036133	937.514587	2141.265137	980.749451	3.591680
271.411835	944.341125	2364.266113	1010.331238	4.647436
271.787537	969.371887	2448.460449	983.024963	0.923074
272.163239	967.096313	2616.848877	1014.882263	2.896553
272.538849	1035.361938	2780.686523	1026.259888	-0.521510
272.914459	987.576050	2812.543701	1021.708862	1.870324
273.290070	980.749451	2632.777588	1055.841675	4.545457
273.665588	944.341125	2491.695313	987.576050	2.794119
274.041046	996.678101	2537.205811	1055.841675	3.840475
274.416565	1010.331238	2441.633789	994.402588	-1.112878
274.791962	1005.780212	2389.296875	960.269775	-3.289475
275.167389	971.647400	2316.480225	1049.015137	5.752964
275.542755	983.024963	2402.949951	980.749451	-0.160256
275.918060	989.851563	2245.938965	1080.872437	7.246381
276.293365	1005.780212	2336.959961	987.576050	-1.367521
276.668640	976.198425	2475.766602	1003.504700	1.820943
277.043854	1023.984375	2489.419678	1037.637451	0.931674
277.419037	937.514587	2514.450439	1017.157776	5.050503
277.794189	964.820801	2439.358398	964.820801	0.000000
278.169312	971.647400	2491.695313	1023.984375	3.443114
278.544373	976.198425	2514.450439	996.678101	1.331360
278.919464	930.687988	2509.899414	996.678101	4.178675
279.294464	935.239075	2330.133301	994.402588	4.241434
279.669464	985.300537	2459.837891	1058.117188	4.938271
280.044403	1012.606750	2380.194824	978.473938	-2.495840
280.419312	944.341125	2437.082764	921.585938	-1.524389
280.794189	1019.433350	2430.256104	939.790100	-5.645164
281.169037	1037.637451	2559.960938	973.922913	-4.185348
281.543854	998.953613	2553.134277	1033.086426	2.196193
281.918671	980.749451	2589.542725	1067.219238	5.374823
282.293365	987.576050	2869.431641	964.820801	-1.209192
282.668091	926.136963	2878.533936	1026.259888	5.128205
283.042786	978.473938	3003.687500	1030.810913	2.584269
283.417419	967.096313	3005.962891	1037.637451	3.459821
283.792053	980.749451	2889.911377	978.473938	-0.119189
284.166595	973.922913	2937.697266	1074.045776	5.098491
284.541138	960.269775	2785.237549	1039.912964	4.364088
284.915619	998.953613	2939.972900	987.576050	-0.586164
285.290100	1055.841675	2921.768799	1014.882263	-2.195124
285.664520	996.678101	2894.462402	1074.045776	4.076737
286.038940	930.687988	2935.421875	1101.352051	8.513053
286.413300	987.576050	3140.218750	1005.780212	0.845666
286.787628	896.555176	3165.249512	1062.668213	7.321966
287.161896	955.718750	3219.861816	1076.321289	5.326631
287.536194	1001.229126	3304.056152	1021.708862	0.889330
287.910400	987.576050	3137.943115	1055.841675	3.174603
288.284607	937.514587	3074.228516	1108.178589	7.987218
288.658752	955.718750	2935.421875	1042.188477	4.367813
289.032867	971.647400	2814.819336	1010.331238	2.098765
289.406921	1005.780212	2851.227539	1067.219238	3.329221
289.781006	912.483826	2853.503174	1092.250000	9.261432
290.154999	1008.055725	2878.533936	1096.801025	4.744524
290.529022	1003.504700	3169.800537	1092.250000	4.096638
290.902954	910.208313	3112.912354	1089.974487	8.161159
291.276825	1026.259888	3253.994629	1085.423462	2.655773
291.650757	985.300537	3331.362549	1010.331238	1.066924
292.024597	960.269775	3297.229736	1167.342163	8.860759
292.398407	962.545288	3265.372314	1087.698975	5.434784
292.772156	969.371887	3119.739014	1064.943726	4.444443
293.145905	978.473938	3115.187988	1028.535400	2.342918
293.519592	989.851563	2969.554688	1012.606750	1.149424
293.893280	1037.637451	3053.749023	976.198425	-3.047402
294.266907	917.034912	3110.636963	1105.903076	8.609956
294.640533	980.749451	3294.954102	1030.810913	2.163225
295.014069	978.473938	3249.443604	1083.147949	4.609221
295.387604	1001.229126	3547.536865	1087.698975	3.395892
295.761078	1019.433350	3588.496338	1133.209351	4.428697
296.134552	967.096313	3465.618164	1094.525513	5.100183
296.507996	967.096313	3547.536865	1053.566162	3.350972
296.881378	923.861450	3549.812500	1094.525513	6.499133
297.254730	939.790100	3729.578613	1137.760376	7.096247
297.628021	1028.535400	3988.988037	1060.392700	1.076096
298.001282	953.443237	4034.498291	1167.342163	6.942392
298.374573	1019.433350	4091.386475	1158.240112	4.518518
298.747803	1001.229126	3909.344727	1105.903076	3.599374
299.121002	998.953613	3747.782715	1112.729614	4.139071
299.494141	885.177612	3602.149414	1069.494751	6.783918
299.867188	1001.229126	3565.741211	1030.810913	1.153505
300.240265	1001.229126	3388.250488	1099.076538	4.099143
300.613312	969.371887	3367.770752	1085.423462	4.838710
300.986328	1026.259888	3345.015625	1064.943726	1.668301
301.359314	987.576050	3203.933350	1039.912964	2.361393
301.732239	951.167725	3140.218750	1062.668213	5.093554
302.105103	921.585938	3265.372314	1055.841675	5.728156
302.477997	953.443237	3188.004639	1094.525513	6.313645
302.850830	1003.504700	3367.770752	1074.045776	2.983635
303.223602	1008.055725	3135.667725	1155.964600	6.951872
303.596375	1051.290649	3208.484375	1051.290649	0.000000
303.969116	973.922913	3071.953125	1092.250000	5.639913
304.341766	987.576050	3076.504150	1074.045776	4.139430
304.714478	980.749451	3156.147461	1012.606750	1.464435
305.087067	944.341125	3162.973877	1135.484863	8.615384
305.459656	989.851563	3144.769775	1094.525513	4.857444
305.832214	1003.504700	3172.075928	1092.250000	4.092340
306.204681	971.647400	3040.095703	1146.862427	8.470844
306.577148	907.932800	3056.024414	1069.494751	7.521185
306.949646	998.953613	3140.218750	1017.157776	0.850159
307.322021	921.585938	3167.524902	989.851563	3.039514
307.694397	935.239075	3126.565674	1046.739624	5.088267
308.066742	1019.433350	3053.749023	1049.015137	1.454139
308.439026	980.749451	3324.535889	1012.606750	1.359224
308.811279	1001.229126	3217.586426	1128.658325	5.749488
309.183502	998.953613	3417.832275	1078.596802	3.292567
309.555695	946.616638	3481.546875	1026.259888	3.141832
309.927887	951.167725	3415.556641	1085.423462	5.447831
310.299988	1023.984375	3556.638916	1128.658325	4.132974
310.672058	942.065613	3499.750977	1051.290649	4.270464
311.044128	946.616638	3558.914551	1074.045776	4.878048
311.416168	914.759338	3654.486328	1023.984375	3.986712
311.788147	942.065613	3636.282227	1117.280762	6.503380
312.160065	967.096313	3615.802490	1001.229126	1.288660
312.531982	944.341125	3549.812500	1074.045776	4.978164
312.903870	992.127075	3433.760986	1119.556274	5.219014
313.275696	948.892151	3417.832275	1037.637451	3.594470
313.647491	1014.882263	3319.984863	1055.841675	1.776902
314.019318	1001.229126	3404.179199	1046.739624	1.893943
314.391022	1017.157776	3415.556641	1080.872437	2.656550
314.762726	1003.504700	3445.138428	1071.770264	2.795897
315.134369	989.851563	3563.465576	1076.321289	3.359856
315.505981	937.514587	3699.996826	1133.209351	7.084019
315.877594	976.198425	3759.160400	1110.454102	4.824201
316.249146	1049.015137	3593.047363	1039.912964	-0.357785
316.620636	928.412476	3467.893799	1128.658325	7.885305
316.992157	973.922913	3276.750000	1151.413574	7.707511
317.363586	896.555176	3290.403076	1051.290649	6.463881
317.735016	985.300537	3256.270264	1053.566162	3.006012
318.106354	960.269775	3304.056152	1089.974487	5.533982
318.477722	1026.259888	3347.291016	1085.423462	2.549021
318.849060	919.310425	3253.994629	1030.810913	4.775828
319.220306	910.208313	3244.892578	1046.739624	5.847956
319.591522	1014.882263	3442.863037	1083.147949	2.811624
319.962738	985.300537	3454.240479	1078.596802	3.778799
320.333923	944.341125	3304.056152	1115.005249	7.232404
320.705017	1042.188477	3310.882813	1096.801025	2.407224
321.076111	998.953613	3329.086914	1085.423462	3.710940
321.447144	978.473938	3283.576416	1044.463989	2.862782
321.818176	914.759338	3222.137451	1037.637451	5.325443
