Jaz Data File
++++++++++++++++++++++++++++++++++++
Date: Wed Feb 07 06:53:46 2024
User: jaz
Dark Spectrum Present: Yes
Reference Spectrum Present: Yes
Processed Spectrum Present: Yes
Spectrometers: JAZA3692
Integration Time (usec): 49800 (JAZA3692)
Spectra Averaged: 1 (JAZA3692)
Boxcar Smoothing: 0 (JAZA3692)
Correct for Electrical Dark: No (JAZA3692)
Strobe/Lamp Enabled: Yes (JAZA3692)
Correct for Detector Non-linearity: No (JAZA3692)
Correct for Stray Light: No (JAZA3692)
Number of Pixels in Processed Spectrum: 2048
>>>>>Begin Processed Spectral Data<<<<<
W	D	R	S	P
190.244385	0.000000	0.000000	0.000000	0.000000
190.627136	0.000000	0.000000	0.000000	0.000000
191.009842	912.483826	932.963501	937.514587	122.222450
191.392532	962.545288	928.412476	901.106262	179.999893
191.775177	957.994263	923.861450	894.279663	186.666718
192.157791	955.718750	953.443237	844.218201	4900.018555
192.540390	928.412476	907.932800	921.585938	33.333233
192.922943	869.248962	1008.055725	926.136963	40.983593
193.305481	880.626526	978.473938	878.351013	-2.325573
193.687958	944.341125	946.616638	971.647400	1200.005371
194.070419	944.341125	971.647400	885.177612	-216.666367
194.452866	955.718750	967.096313	910.208313	-400.001617
194.835251	969.371887	951.167725	930.687988	212.500290
195.217621	978.473938	953.443237	928.412476	200.000244
195.599960	948.892151	1017.157776	917.034912	-46.666588
195.982254	955.718750	914.759338	978.473938	-55.555458
196.364517	905.657288	971.647400	1005.780212	151.724136
196.746750	1008.055725	944.341125	967.096313	64.285759
197.128952	976.198425	948.892151	946.616638	108.333298
197.511139	953.443237	935.239075	901.106262	287.500031
197.893280	932.963501	1033.086426	942.065613	9.090937
198.275391	939.790100	901.106262	937.514587	5.882334
198.657471	930.687988	980.749451	976.198425	90.909126
199.039520	964.820801	955.718750	976.198425	-125.000671
199.421539	960.269775	946.616638	948.892151	83.333405
199.803513	914.759338	960.269775	957.994263	95.000023
200.185471	948.892151	1053.566162	937.514587	-10.869521
200.567383	962.545288	1030.810913	957.994263	-6.666643
200.949265	1005.780212	935.239075	917.034912	125.806450
201.331131	964.820801	928.412476	935.239075	81.249893
201.712967	1080.872437	944.341125	944.341125	100.000000
202.094742	873.799988	1030.810913	987.576050	72.463783
202.476517	885.177612	1001.229126	946.616638	52.941166
202.858231	928.412476	951.167725	923.861450	-19.999893
203.239944	942.065613	985.300537	951.167725	21.052683
203.621582	946.616638	957.994263	917.034912	-259.999146
204.003235	907.932800	923.861450	917.034912	57.143021
204.384827	903.381775	985.300537	901.106262	-2.777767
204.766388	928.412476	935.239075	896.555176	-466.664276
205.147934	1003.504700	955.718750	907.932800	200.000000
205.529449	980.749451	957.994263	866.973450	500.000275
205.910904	896.555176	964.820801	921.585938	36.666714
206.292343	962.545288	985.300537	919.310425	-189.999512
206.673767	964.820801	1012.606750	921.585938	-90.476097
207.055115	892.004150	1001.229126	923.861450	29.166681
207.436462	937.514587	1001.229126	860.146851	-121.428703
207.817780	942.065613	944.341125	910.208313	-1400.005371
208.199051	930.687988	1042.188477	939.790100	8.163293
208.580307	887.453125	973.922913	946.616638	68.421021
208.961517	901.106262	1005.780212	835.116150	-63.043491
209.342712	948.892151	944.341125	873.799988	1650.005371
209.723846	944.341125	932.963501	953.443237	-80.000107
210.104965	914.759338	930.687988	912.483826	-14.285660
210.486069	917.034912	1021.708862	914.759338	-2.173964
210.867111	871.524475	942.065613	1003.504700	187.096817
211.248123	973.922913	1069.494751	871.524475	-107.142899
211.629120	937.514587	976.198425	887.453125	-129.411835
212.010071	946.616638	967.096313	957.994263	55.555687
212.390991	994.402588	930.687988	855.595825	217.857071
212.771881	907.932800	980.749451	926.136963	25.000000
213.152756	989.851563	953.443237	932.963501	156.250153
213.533569	992.127075	983.024963	953.443237	424.998505
213.914368	1008.055725	992.127075	930.687988	485.714355
214.295135	962.545288	1017.157776	998.953613	66.666664
214.675858	994.402588	1026.259888	887.453125	-335.714142
215.056549	928.412476	1033.086426	971.647400	41.304379
215.437225	926.136963	1026.259888	1010.331238	84.090904
215.817841	951.167725	976.198425	928.412476	-90.909355
216.198441	873.799988	1055.841675	967.096313	51.249977
216.579025	983.024963	960.269775	923.861450	260.000122
216.959549	932.963501	973.922913	969.371887	88.888939
217.340057	967.096313	1008.055725	935.239075	-77.777580
217.720535	953.443237	917.034912	996.678101	-118.749939
218.100967	926.136963	1010.331238	930.687988	5.405386
218.481369	951.167725	910.208313	960.269775	-22.222122
218.861740	996.678101	910.208313	951.167725	52.631535
219.242065	994.402588	996.678101	907.932800	-3800.013428
219.622391	926.136963	992.127075	912.483826	-20.689671
220.002670	946.616638	951.167725	962.545288	349.996643
220.382919	951.167725	992.127075	919.310425	-77.777847
220.763123	983.024963	953.443237	948.892151	115.384789
221.143295	978.473938	962.545288	932.963501	285.714355
221.523453	948.892151	957.994263	857.871338	-999.996643
221.903549	955.718750	1003.504700	939.790100	-33.333332
222.283630	910.208313	1055.841675	914.759338	3.124988
222.663696	919.310425	1042.188477	932.963501	11.111078
223.043701	948.892151	1030.810913	928.412476	-24.999981
223.423676	964.820801	1058.117188	898.830688	-70.731689
223.803635	1033.086426	1042.188477	923.861450	-1200.004028
224.183548	1008.055725	998.953613	878.351013	1424.995850
224.563431	951.167725	987.576050	967.096313	43.749855
224.943283	960.269775	1026.259888	957.994263	-3.448263
225.323105	873.799988	1069.494751	846.493713	-13.953503
225.702881	885.177612	978.473938	932.963501	51.219475
226.082642	910.208313	1042.188477	851.044800	-44.827579
226.462357	903.381775	1028.535400	951.167725	38.181835
226.842041	955.718750	1037.637451	942.065613	-16.666691
227.221695	892.004150	1019.433350	903.381775	8.928585
227.601318	987.576050	1058.117188	937.514587	-70.967758
227.980911	930.687988	1044.463989	907.932800	-19.999989
228.360474	917.034912	1012.606750	935.239075	19.047623
228.739990	962.545288	1133.209351	866.973450	-55.999977
229.119476	905.657288	1149.138062	957.994263	21.495321
229.498932	821.463013	1149.138062	951.167725	39.583336
229.878372	885.177612	1210.577026	985.300537	30.769239
230.257736	901.106262	1240.158813	955.718750	16.107382
230.637115	944.341125	1233.332275	892.004150	-18.110235
231.016449	935.239075	1142.311401	919.310425	-7.692312
231.395737	871.524475	1133.209351	910.208313	14.782603
231.774994	898.830688	1183.270874	876.075500	-7.999990
232.154221	926.136963	1153.689087	937.514587	5.000008
232.533417	939.790100	1117.280762	905.657288	-19.230764
232.912582	921.585938	1133.209351	937.514587	7.526885
233.291702	935.239075	1121.831787	885.177612	-26.829269
233.670792	944.341125	1185.546387	942.065613	-0.943393
234.049866	942.065613	1126.382813	889.728638	-28.395058
234.428894	955.718750	1149.138062	901.106262	-28.235281
234.807892	951.167725	1121.831787	903.381775	-28.000008
235.186874	944.341125	1128.658325	942.065613	-1.234563
235.565781	882.902100	1151.413574	887.453125	1.694909
235.944687	1019.433350	1149.138062	978.473938	-31.578970
236.323547	967.096313	1199.199463	939.790100	-11.764688
236.702377	955.718750	1199.199463	930.687988	-10.280388
237.081177	985.300537	1169.617676	846.493713	-75.308693
237.459946	932.963501	1274.291626	932.963501	0.000000
237.838669	953.443237	1210.577026	948.892151	-1.769929
238.217361	894.279663	1151.413574	901.106262	2.654881
238.596039	948.892151	1083.147949	967.096313	13.559312
238.974670	914.759338	1174.168701	923.861450	3.508783
239.353271	905.657288	1169.617676	1019.433350	43.103462
239.731842	957.994263	1140.035889	905.657288	-28.750004
240.110367	914.759338	1240.158813	926.136963	3.496510
240.488876	896.555176	1192.372925	978.473938	27.692308
240.867340	971.647400	1244.709839	978.473938	2.499992
241.245789	901.106262	1303.873413	928.412476	6.779653
241.624176	935.239075	1376.690063	917.034912	-4.123711
242.002548	932.963501	1281.118164	903.381775	-8.496719
242.380890	887.453125	1401.720825	980.749451	18.141588
242.759186	957.994263	1529.150024	962.545288	0.796810
243.137451	944.341125	1622.446289	1001.229126	8.389259
243.515686	939.790100	1670.232300	939.790100	0.000000
243.893890	928.412476	1683.885376	955.718750	3.614461
244.272049	869.248962	1665.681274	937.514587	8.571428
244.650192	1026.259888	1590.588989	964.820801	-10.887102
245.028290	932.963501	1590.588989	994.402588	9.342565
245.406357	928.412476	1510.945801	1076.321289	25.390619
245.784393	912.483826	1497.292725	969.371887	9.727633
246.162384	973.922913	1433.578125	1028.535400	11.881186
246.540359	889.728638	1549.629639	992.127075	15.517242
246.918289	955.718750	1620.170776	964.820801	1.369858
247.296204	964.820801	1795.385864	1035.361938	8.493150
247.674057	1005.780212	1995.631714	1049.015137	4.367819
248.051895	996.678101	2339.235352	917.034912	-5.932200
248.429703	919.310425	2359.715088	983.024963	4.423378
248.807465	907.932800	2325.582275	989.851563	5.778492
249.185196	1001.229126	2093.479248	953.443237	-4.374995
249.562897	946.616638	1959.223389	892.004150	-5.393257
249.940567	889.728638	1884.131226	1042.188477	15.331802
250.318192	976.198425	1642.926025	914.759338	-9.215021
250.695801	960.269775	1667.956787	1039.912964	11.254013
251.073349	1019.433350	1661.130127	921.585938	-15.248232
251.450882	992.127075	1567.833862	1030.810913	6.719365
251.828400	985.300537	1563.282837	978.473938	-1.181109
252.205872	914.759338	1613.344238	980.749451	9.446255
252.583313	905.657288	1633.823975	953.443237	6.562501
252.960693	978.473938	1733.946899	894.279663	-11.144578
253.338074	983.024963	1768.079712	1030.810913	6.086957
253.715408	951.167725	1722.569214	976.198425	3.244834
254.092682	928.412476	1720.293701	914.759338	-1.724140
254.469955	894.279663	1570.109375	992.127075	14.478116
254.847198	930.687988	1658.854614	998.953613	9.375001
255.224365	866.973450	1565.558350	1012.606750	20.846901
255.601563	919.310425	1535.976563	969.371887	8.118082
255.978683	1005.780212	1576.935913	1010.331238	0.796810
256.355743	896.555176	1576.935913	964.820801	10.033444
256.732819	937.514587	1526.874512	889.728638	-8.108109
257.109894	894.279663	1586.037964	994.402588	14.473686
257.486877	932.963501	1558.731689	928.412476	-0.727270
257.863831	887.453125	1688.436401	967.096313	9.943177
258.240753	1008.055725	1818.141113	937.514587	-8.707865
258.617645	914.759338	1788.559326	960.269775	5.208336
258.994507	967.096313	1797.661377	948.892151	-2.191780
259.371307	964.820801	1984.254150	983.024963	1.785714
259.748108	971.647400	2209.530762	964.820801	-0.551474
260.124878	951.167725	2364.266113	1039.912964	6.280188
260.501617	919.310425	2555.409912	1049.015137	7.927679
260.878296	946.616638	2846.676514	1046.739624	5.269465
261.254944	960.269775	2983.207764	1012.606750	2.587177
261.631561	851.044800	2924.044189	1014.882263	7.903401
262.008179	962.545288	2555.409912	1003.504700	2.571431
262.384735	928.412476	2252.765625	1053.566162	9.450174
262.761261	905.657288	2025.213501	921.585938	1.422765
263.137695	873.799988	1952.396851	1037.637451	15.189869
263.514191	937.514587	1986.529663	939.790100	0.216919
263.890594	976.198425	1934.192627	948.892151	-2.850359
264.267029	957.994263	1925.090576	937.514587	-2.117646
264.643341	898.830688	1868.202637	996.678101	10.093898
265.019653	953.443237	1790.834839	992.127075	4.619564
265.395935	926.136963	1865.927002	987.576050	6.537533
265.772217	953.443237	1815.865601	1003.504700	5.804750
266.148407	989.851563	1897.784302	946.616638	-4.761908
266.524597	976.198425	1884.131226	1023.984375	5.263159
266.900726	939.790100	2088.927979	962.545288	1.980196
267.276855	937.514587	2136.714111	983.024963	3.795063
267.652924	992.127075	2198.153076	957.994263	-2.830189
268.028992	1005.780212	2191.326416	978.473938	-2.303265
268.404999	996.678101	2204.979736	914.759338	-6.779662
268.781006	935.239075	2198.153076	1001.229126	5.225221
269.156921	946.616638	2195.877686	1023.984375	6.193080
269.532837	967.096313	2245.938965	1026.259888	4.626337
269.908661	901.106262	2209.530762	1060.392700	12.173911
270.284546	901.106262	2093.479248	1014.882263	9.541981
270.660339	976.198425	2141.265137	914.759338	-5.273440
271.036133	976.198425	2195.877686	1008.055725	2.611941
271.411835	885.177612	2195.877686	969.371887	6.423611
271.787537	967.096313	2407.500977	983.024963	1.105845
272.163239	978.473938	2748.829102	992.127075	0.771209
272.538849	939.790100	2796.614990	994.402588	2.941176
272.914459	946.616638	2848.952148	1069.494751	6.459330
273.290070	864.697876	2673.737061	980.749451	6.415094
273.665588	960.269775	2607.746826	1023.984375	3.867404
274.041046	960.269775	2562.236328	1008.055725	2.982955
274.416565	942.065613	2466.664551	1035.361938	6.119401
274.791962	953.443237	2523.552490	1010.331238	3.623187
275.167389	905.657288	2421.154053	1051.290649	9.609612
275.542755	930.687988	2255.041016	1049.015137	8.934713
275.918060	930.687988	2302.827148	1055.841675	9.121063
276.293365	948.892151	2402.949951	1062.668213	7.824727
276.668640	976.198425	2437.082764	976.198425	0.000000
277.043854	955.718750	2400.674561	989.851563	2.362205
277.419037	919.310425	2523.552490	1026.259888	6.666666
277.794189	928.412476	2544.032227	996.678101	4.225352
278.169312	983.024963	2466.664551	1001.229126	1.226994
278.544373	987.576050	2532.654541	942.065613	-2.945510
278.919464	1028.535400	2437.082764	1005.780212	-1.615507
279.294464	976.198425	2437.082764	996.678101	1.401868
279.669464	928.412476	2450.735840	969.371887	2.690586
280.044403	969.371887	2311.929199	980.749451	0.847455
280.419312	985.300537	2439.358398	1060.392700	5.164318
280.794189	998.953613	2521.277100	1023.984375	1.644247
281.169037	1030.810913	2603.195801	1035.361938	0.289435
281.543854	935.239075	2644.155273	962.545288	1.597867
281.918671	960.269775	2701.043213	1019.433350	3.398695
282.293365	955.718750	2853.503174	1064.943726	5.755394
282.668091	980.749451	3012.789551	1014.882263	1.679731
283.042786	957.994263	2980.932129	1053.566162	4.724411
283.417419	973.922913	3112.912354	1039.912964	3.085104
283.792053	923.861450	3008.238525	1044.463989	5.786024
284.166595	989.851563	2974.105713	1033.086426	2.178897
284.541138	921.585938	2782.961914	1044.463989	6.601463
284.915619	937.514587	2835.298828	1039.912964	5.395681
285.290100	898.830688	2935.421875	980.749451	4.022347
285.664520	983.024963	3015.064941	1042.188477	2.911533
286.038940	935.239075	3035.544678	1021.708862	4.117010
286.413300	932.963501	3231.239502	994.402588	2.673269
286.787628	944.341125	3231.239502	1096.801025	6.666667
287.161896	964.820801	3345.015625	1074.045776	4.588909
287.536194	930.687988	3317.709229	1058.117188	5.338419
287.910400	937.514587	3231.239502	1051.290649	4.960319
288.284607	939.790100	3060.575439	1085.423462	6.866954
288.658752	878.351013	2978.656738	1030.810913	7.258939
289.032867	926.136963	2869.431641	1089.974487	8.430915
289.406921	960.269775	3005.962891	1108.178589	7.230254
289.781006	960.269775	3010.513916	1099.076538	6.770255
290.154999	964.820801	2921.768799	1012.606750	2.441861
290.529022	953.443237	3110.636963	1049.015137	4.430381
290.902954	928.412476	3438.312012	1064.943726	5.439710
291.276825	971.647400	3392.801514	1119.556274	6.109024
291.650757	930.687988	3370.046387	1099.076538	6.902985
292.024597	948.892151	3253.994629	1058.117188	4.738402
292.398407	971.647400	3217.586426	1140.035889	7.497465
292.772156	914.759338	3267.647949	1103.627563	8.027079
293.145905	946.616638	3056.024414	1008.055725	2.912623
293.519592	962.545288	2983.207764	1058.117188	4.729731
293.893280	942.065613	2971.830078	1035.361938	4.596412
294.266907	976.198425	3108.361328	1083.147949	5.016011
294.640533	937.514587	3372.321777	1074.045776	5.607474
295.014069	912.483826	3445.138428	1046.739624	5.300992
295.387604	910.208313	3495.199951	1083.147949	6.690143
295.761078	898.830688	3586.220703	1039.912964	5.249788
296.134552	917.034912	3620.353516	1049.015137	4.882156
296.507996	882.902100	3704.547852	1089.974487	7.338710
296.881378	921.585938	3743.231689	1146.862427	7.983869
297.254730	921.585938	3736.405273	1096.801025	6.224737
297.628021	964.820801	3982.161377	1130.933838	5.505280
298.001282	953.443237	4161.927734	1137.760376	5.744679
298.374573	910.208313	4032.222900	1126.382813	6.924199
298.747803	953.443237	4171.029785	1183.270874	7.142858
299.121002	885.177612	3811.497314	1053.566162	5.754277
299.494141	1014.882263	3652.210938	1042.188477	1.035374
299.867188	944.341125	3463.342773	1142.311401	7.859076
300.240265	935.239075	3483.822266	1117.280762	7.142858
300.613312	914.759338	3351.842041	1030.810913	4.761905
300.986328	919.310425	3288.127441	1035.361938	4.899134
301.359314	976.198425	3340.464600	1049.015137	3.079886
301.732239	898.830688	3326.811523	1096.801025	8.153702
302.105103	1053.566162	3499.750977	1099.076538	1.860464
302.477997	976.198425	3440.587402	1137.760376	6.555862
302.850830	944.341125	3381.423828	1067.219238	5.042017
303.223602	946.616638	3228.964111	1087.698975	6.181458
303.596375	923.861450	3144.769775	1076.321289	6.864752
303.969116	894.279663	3160.698486	1023.984375	5.722892
304.341766	957.994263	3112.912354	1078.596802	5.596619
304.714478	923.861450	3108.361328	1030.810913	4.895833
305.087067	910.208313	3119.739014	1037.637451	5.767249
305.459656	898.830688	3208.484375	1023.984375	5.418721
305.832214	841.942688	3074.228516	1033.086426	8.562691
306.204681	964.820801	3017.340576	1092.250000	6.208427
306.577148	935.239075	3056.024414	1108.178589	8.154503
306.949646	930.687988	3242.617188	1105.903076	7.578739
307.322021	912.483826	3110.636963	1080.872437	7.660459
307.694397	994.402588	3128.841064	1060.392700	3.091685
308.066742	923.861450	3158.422852	1042.188477	5.295313
308.439026	928.412476	3288.127441	1033.086426	4.435873
308.811279	926.136963	3315.433838	1149.138062	9.333336
309.183502	964.820801	3397.352539	1135.484863	7.015903
309.555695	917.034912	3634.006836	1096.801025	6.616414
309.927887	980.749451	3606.700439	1121.831787	5.372619
310.299988	983.024963	3513.404053	1121.831787	5.485614
310.672058	892.004150	3670.415039	1014.882263	4.422604
311.044128	894.279663	3677.241699	1146.862427	9.076041
311.416168	969.371887	3611.251465	1112.729614	5.426353
311.788147	917.034912	3586.220703	1080.872437	6.138109
312.160065	1014.882263	3775.089111	1033.086426	0.659522
312.531982	983.024963	3531.608398	1115.005249	5.178574
312.903870	926.136963	3542.985840	1099.076538	6.608696
313.275696	907.932800	3429.209961	1085.423462	7.039712
313.647491	992.127075	3381.423828	1105.903076	4.761903
314.019318	964.820801	3360.944336	1083.147949	4.938274
314.391022	1012.606750	3340.464600	1035.361938	0.977516
314.762726	939.790100	3451.965088	1064.943726	4.981883
315.134369	946.616638	3533.883789	1042.188477	3.693930
315.505981	926.136963	3738.680664	1085.423462	5.663432
315.877594	948.892151	3779.640137	1151.413574	7.154343
316.249146	992.127075	3611.251465	1126.382813	5.125978
316.620636	978.473938	3426.934326	1058.117188	3.252789
316.992157	1008.055725	3381.423828	1074.045776	2.780439
317.363586	983.024963	3370.046387	1053.566162	2.955198
317.735016	937.514587	3306.331787	1108.178589	7.204608
318.106354	992.127075	3363.219727	1026.259888	1.439539
318.477722	912.483826	3356.393066	1005.780212	3.817506
318.849060	912.483826	3347.291016	1092.250000	7.383179
319.220306	969.371887	3374.597412	1078.596802	4.541151
319.591522	921.585938	3456.516113	1105.903076	7.271093
319.962738	942.065613	3495.199951	1044.463989	4.010693
320.333923	932.963501	3529.332764	1089.974487	6.047329
320.705017	948.892151	3556.638916	998.953613	1.919721
321.076111	903.381775	3476.995850	1017.157776	4.420865
321.447144	942.065613	3340.464600	1071.770264	5.407968
321.818176	892.004150	3203.933350	1053.566162	6.988190
322.189178	969.371887	3272.198975	980.749451	0.494069
322.560120	919.310425	3385.974854	1012.606750	3.782287
322.931030	873.799988	3279.025391	1080.872437	8.609274
