Jaz Data File
++++++++++++++++++++++++++++++++++++
Date: Wed Feb 07 06:51:07 2024
User: jaz
Dark Spectrum Present: Yes
Reference Spectrum Present: Yes
Processed Spectrum Present: Yes
Spectrometers: JAZA3692
Integration Time (usec): 42900 (JAZA3692)
Spectra Averaged: 1 (JAZA3692)
Boxcar Smoothing: 0 (JAZA3692)
Correct for Electrical Dark: No (JAZA3692)
Strobe/Lamp Enabled: Yes (JAZA3692)
Correct for Detector Non-linearity: No (JAZA3692)
Correct for Stray Light: No (JAZA3692)
Number of Pixels in Processed Spectrum: 2048
>>>>>Begin Processed Spectral Data<<<<<
W	D	R	S	P
190.244385	0.000000	0.000000	0.000000	0.000000
190.627136	0.000000	0.000000	0.000000	0.000000
191.009842	907.932800	948.892151	953.443237	111.111229
191.392532	985.300537	1028.535400	841.942688	-331.579285
191.775177	917.034912	967.096313	935.239075	36.363670
192.157791	989.851563	903.381775	917.034912	84.210510
192.540390	992.127075	917.034912	960.269775	42.424267
192.922943	905.657288	1001.229126	921.585938	16.666677
193.305481	1003.504700	1035.361938	930.687988	-228.571945
193.687958	1010.331238	1023.984375	1005.780212	-33.333183
194.070419	948.892151	1019.433350	1003.504700	77.419365
194.452866	1064.943726	928.412476	978.473938	63.333332
194.835251	1030.810913	1012.606750	1062.668213	-175.000076
195.217621	1008.055725	976.198425	994.402588	42.857170
195.599960	1039.912964	1003.504700	964.820801	206.250320
195.982254	1080.872437	976.198425	1012.606750	65.217415
196.364517	1033.086426	971.647400	1078.596802	-74.074051
196.746750	962.545288	1003.504700	989.851563	66.666664
197.128952	1014.882263	994.402588	932.963501	400.000305
197.511139	1067.219238	1001.229126	996.678101	106.896523
197.893280	992.127075	1010.331238	1019.433350	150.000168
198.275391	998.953613	935.239075	994.402588	7.142837
198.657471	1001.229126	1003.504700	1060.392700	2599.940918
199.039520	1049.015137	967.096313	951.167725	119.444359
199.421539	948.892151	1037.637451	980.749451	35.897449
199.803513	967.096313	973.922913	964.820801	-33.333035
200.185471	1001.229126	948.892151	1055.841675	-104.347931
200.567383	1010.331238	1010.331238	996.678101	0.000000
200.949265	989.851563	989.851563	957.994263	0.000000
201.331131	930.687988	1044.463989	983.024963	46.000011
201.712967	946.616638	1037.637451	1012.606750	72.500023
202.094742	976.198425	1030.810913	1012.606750	66.666664
202.476517	980.749451	1026.259888	1014.882263	74.999969
202.858231	957.994263	1055.841675	1001.229126	44.186005
203.239944	969.371887	994.402588	969.371887	0.000000
203.621582	955.718750	935.239075	994.402588	-188.888916
204.003235	937.514587	969.371887	967.096313	92.856979
204.384827	935.239075	1019.433350	953.443237	21.621616
204.766388	937.514587	1017.157776	894.279663	-54.285778
205.147934	985.300537	1039.912964	894.279663	-166.666962
205.529449	1021.708862	953.443237	951.167725	103.333321
205.910904	976.198425	1044.463989	980.749451	6.666649
206.292343	948.892151	1019.433350	964.820801	22.580633
206.673767	930.687988	992.127075	1008.055725	125.925919
207.055115	998.953613	980.749451	1046.739624	-262.500458
207.436462	1010.331238	1012.606750	971.647400	-1700.005371
207.817780	1014.882263	1069.494751	946.616638	-125.000031
208.199051	967.096313	976.198425	1023.984375	624.998474
208.580307	994.402588	983.024963	951.167725	379.999023
208.961517	928.412476	971.647400	998.953613	163.157776
209.342712	983.024963	987.576050	989.851563	149.999329
209.723846	976.198425	989.851563	935.239075	-299.999542
210.104965	1096.801025	1069.494751	1028.535400	249.999771
210.486069	955.718750	1074.045776	935.239075	-17.307690
210.867111	985.300537	1044.463989	985.300537	0.000000
211.248123	962.545288	1046.739624	994.402588	37.837818
211.629120	962.545288	998.953613	996.678101	93.750023
212.010071	994.402588	1044.463989	907.932800	-172.727463
212.390991	951.167725	1026.259888	919.310425	-42.424267
212.771881	983.024963	923.861450	939.790100	73.076904
213.152756	962.545288	992.127075	962.545288	0.000000
213.533569	962.545288	944.341125	1001.229126	-212.499954
213.914368	930.687988	960.269775	964.820801	115.384552
214.295135	989.851563	985.300537	885.177612	2300.008057
214.675858	989.851563	928.412476	932.963501	92.592621
215.056549	978.473938	992.127075	985.300537	50.000225
215.437225	1019.433350	978.473938	962.545288	138.888870
215.817841	978.473938	1071.770264	955.718750	-24.390230
216.198441	1010.331238	985.300537	1001.229126	36.363792
216.579025	928.412476	1028.535400	1019.433350	90.909126
216.959549	1053.566162	1017.157776	930.687988	337.499634
217.340057	973.922913	1012.606750	989.851563	41.176498
217.720535	1003.504700	1008.055725	951.167725	-1150.004028
218.100967	1003.504700	1001.229126	967.096313	1599.965088
218.481369	994.402588	987.576050	1017.157776	-333.334229
218.861740	1003.504700	1067.219238	978.473938	-39.285793
219.242065	955.718750	978.473938	901.106262	-240.000168
219.622391	969.371887	1019.433350	930.687988	-77.272812
220.002670	994.402588	1012.606750	978.473938	-87.500038
220.382919	976.198425	962.545288	1005.780212	-216.666595
220.763123	932.963501	996.678101	946.616638	21.428585
221.143295	937.514587	1014.882263	917.034912	-26.470583
221.523453	992.127075	1005.780212	946.616638	-333.333191
221.903549	957.994263	1003.504700	989.851563	69.999985
222.283630	1046.739624	1023.984375	1019.433350	119.999893
222.663696	976.198425	1035.361938	935.239075	-69.230759
223.043701	923.861450	978.473938	921.585938	-4.166653
223.423676	978.473938	1033.086426	917.034912	-112.499962
223.803635	967.096313	1012.606750	901.106262	-144.999817
224.183548	928.412476	996.678101	1003.504700	110.000053
224.563431	962.545288	1014.882263	957.994263	-8.695621
224.943283	946.616638	1008.055725	917.034912	-48.148056
225.323105	937.514587	1058.117188	992.127075	45.283009
225.702881	1008.055725	1033.086426	1008.055725	0.000000
226.082642	919.310425	1026.259888	978.473938	55.319130
226.462357	1017.157776	1035.361938	994.402588	-124.999916
226.842041	998.953613	967.096313	951.167725	149.999802
227.221695	926.136963	1019.433350	980.749451	58.536552
227.601318	937.514587	1021.708862	1030.810913	110.810768
227.980911	989.851563	996.678101	1030.810913	600.001770
228.360474	976.198425	1021.708862	971.647400	-9.999960
228.739990	1028.535400	1135.484863	919.310425	-102.127655
229.119476	971.647400	1124.107300	976.198425	2.985064
229.498932	1005.780212	1130.933838	1023.984375	14.545454
229.878372	996.678101	1187.821899	939.790100	-29.761887
230.257736	1008.055725	1212.852539	1003.504700	-2.222215
230.637115	980.749451	1203.750488	998.953613	8.163263
231.016449	992.127075	1128.658325	978.473938	-10.000009
231.395737	903.381775	1121.831787	969.371887	30.208336
231.774994	937.514587	1014.882263	1037.637451	129.411743
232.154221	964.820801	1146.862427	969.371887	2.500025
232.533417	937.514587	1146.862427	951.167725	6.521748
232.912582	917.034912	1167.342163	1042.188477	49.999977
233.291702	928.412476	1115.005249	969.371887	21.951231
233.670792	996.678101	1119.556274	994.402588	-1.851845
234.049866	907.932800	1133.209351	985.300537	34.343449
234.428894	957.994263	1176.444214	983.024963	11.458323
234.807892	973.922913	1183.270874	992.127075	8.695648
235.186874	985.300537	1133.209351	939.790100	-30.769253
235.565781	967.096313	1212.852539	871.524475	-38.888878
235.944687	1028.535400	1185.546387	962.545288	-42.028976
236.323547	948.892151	1256.087524	953.443237	1.481496
236.702377	926.136963	1201.474976	987.576050	22.314058
237.081177	980.749451	1174.168701	955.718750	-12.941163
237.459946	980.749451	1190.097412	1023.984375	20.652184
237.838669	942.065613	1165.066650	987.576050	20.408173
238.217361	928.412476	1256.087524	1014.882263	26.388884
238.596039	994.402588	1208.301514	1001.229126	3.191478
238.974670	942.065613	1208.301514	907.932800	-12.820515
239.353271	957.994263	1224.230225	1035.361938	29.059814
239.731842	980.749451	1240.158813	1019.433350	14.912298
240.110367	919.310425	1158.240112	944.341125	10.476178
240.488876	928.412476	1237.883301	1044.463989	37.499985
240.867340	964.820801	1253.812012	994.402588	10.236224
241.245789	1019.433350	1258.363037	973.922913	-19.047628
241.624176	969.371887	1228.781250	951.167725	-7.017543
242.002548	957.994263	1467.710938	1008.055725	9.821429
242.380890	1023.984375	1495.017212	1021.708862	-0.483090
242.759186	1019.433350	1533.701050	919.310425	-19.469028
243.137451	932.963501	1592.864502	989.851563	8.620696
243.515686	971.647400	1658.854614	930.687988	-5.960271
243.893890	964.820801	1658.854614	1042.188477	11.147537
244.272049	967.096313	1517.772339	1021.708862	9.917364
244.650192	889.728638	1606.517700	1108.178589	30.476183
245.028290	905.657288	1506.394775	1060.392700	25.757576
245.406357	960.269775	1492.741699	1010.331238	9.401710
245.784393	955.718750	1447.231201	1010.331238	11.111110
246.162384	907.932800	1501.843750	1021.708862	19.157091
246.540359	948.892151	1592.864502	1064.943726	18.021204
246.918289	955.718750	1615.619751	1053.566162	14.827590
247.296204	989.851563	1756.702026	1035.361938	5.934713
247.674057	973.922913	2066.172852	1071.770264	8.958329
248.051895	976.198425	2243.663574	964.820801	-0.897668
248.429703	948.892151	2352.888428	1135.484863	13.290113
248.807465	1010.331238	2336.959961	1069.494751	4.459689
249.185196	1019.433350	2095.754639	994.402588	-2.325585
249.562897	964.820801	1893.233276	1046.739624	8.823538
249.940567	1001.229126	1840.896362	969.371887	-3.794031
250.318192	1021.708862	1779.457275	987.576050	-4.504505
250.695801	994.402588	1649.752563	1037.637451	6.597218
251.073349	980.749451	1579.211426	1021.708862	6.844112
251.450882	955.718750	1501.843750	985.300537	5.416670
251.828400	1053.566162	1524.598877	983.024963	-14.975860
252.205872	987.576050	1565.558350	971.647400	-2.755906
252.583313	926.136963	1636.099487	1005.780212	11.217951
252.960693	980.749451	1722.569214	1026.259888	6.134972
253.338074	955.718750	1913.713013	1030.810913	7.838477
253.715408	1019.433350	1845.447388	1008.055725	-1.377413
254.092682	923.861450	1665.681274	1044.463989	16.257660
254.469955	989.851563	1654.303589	1005.780212	2.397261
254.847198	937.514587	1574.660400	1060.392700	19.285713
255.224365	1017.157776	1508.670288	973.922913	-8.796289
255.601563	910.208313	1506.394775	962.545288	8.778625
255.978683	973.922913	1547.354126	1033.086426	10.317456
256.355743	976.198425	1499.568237	1042.188477	12.608685
256.732819	930.687988	1570.109375	1055.841675	19.572960
257.109894	944.341125	1549.629639	1023.984375	13.157899
257.486877	1005.780212	1576.935913	1074.045776	11.952181
257.863831	1028.535400	1683.885376	976.198425	-7.986111
258.240753	1008.055725	1672.507813	1044.463989	5.479442
258.617645	1017.157776	1692.987427	1019.433350	0.336708
258.994507	1003.504700	1799.937012	1049.015137	5.714288
259.371307	980.749451	1836.345337	1089.974487	12.765961
259.748108	985.300537	2125.336426	1055.841675	6.187624
260.124878	998.953613	2314.204590	1012.606750	1.038063
260.501617	898.830688	2500.797363	1108.178589	13.068181
260.878296	919.310425	2803.441650	1135.484863	11.473428
261.254944	951.167725	2889.911377	1140.035889	9.741781
261.631561	989.851563	2864.880615	1069.494751	4.247571
262.008179	946.616638	2521.277100	1083.147949	8.670525
262.384735	960.269775	2168.571289	1051.290649	7.532960
262.761261	973.922913	2018.386963	1117.280762	13.725493
263.137695	926.136963	2027.489014	1105.903076	16.322311
263.514191	928.412476	1934.192627	1014.882263	8.597285
263.890594	996.678101	1970.601074	1003.504700	0.700938
264.267029	944.341125	1909.161987	994.402588	5.188680
264.643341	978.473938	1875.029175	1064.943726	9.644670
265.019653	942.065613	1845.447388	994.402588	5.793450
265.395935	992.127075	1831.794189	1137.760376	17.344172
265.772217	1017.157776	1863.651489	932.963501	-9.946238
266.148407	953.443237	1829.518677	964.820801	1.298697
266.524597	992.127075	1970.601074	1026.259888	3.488372
266.900726	926.136963	2029.764526	1010.331238	7.628867
267.276855	967.096313	2004.733887	967.096313	0.000000
267.652924	967.096313	2241.387939	1051.290649	6.607148
268.028992	953.443237	2168.571289	1037.637451	6.928835
268.404999	955.718750	2118.509766	1044.463989	7.632089
268.781006	894.279663	2111.683350	1026.259888	10.841123
269.156921	980.749451	2125.336426	1062.668213	7.157059
269.532837	973.922913	2170.846924	1078.596802	8.745240
269.908661	953.443237	2086.652588	1126.382813	15.261044
270.284546	892.004150	2143.540527	1124.107300	18.545458
270.660339	1023.984375	2148.091553	1110.454102	7.692303
271.036133	937.514587	2141.265137	1046.739624	9.073728
271.411835	944.341125	2364.266113	1067.219238	8.653845
271.787537	969.371887	2448.460449	1058.117188	5.999999
272.163239	967.096313	2616.848877	1119.556274	9.241384
272.538849	1035.361938	2780.686523	1142.311401	6.127769
272.914459	987.576050	2812.543701	1051.290649	3.491273
273.290070	980.749451	2632.777588	1062.668213	4.958679
273.665588	944.341125	2491.695313	1096.801025	9.852941
274.041046	996.678101	2537.205811	1064.943726	4.431314
274.416565	1010.331238	2441.633789	1128.658325	8.267092
274.791962	1005.780212	2389.296875	1071.770264	4.769733
275.167389	971.647400	2316.480225	1060.392700	6.598984
275.542755	983.024963	2402.949951	1053.566162	4.967952
275.918060	989.851563	2245.938965	1028.535400	3.079709
276.293365	1005.780212	2336.959961	1130.933838	9.401708
276.668640	976.198425	2475.766602	1099.076538	8.194234
277.043854	1023.984375	2489.419678	1039.912964	1.086953
277.419037	937.514587	2514.450439	1026.259888	5.627706
277.794189	964.820801	2439.358398	1074.045776	7.407405
278.169312	971.647400	2491.695313	1094.525513	8.083832
278.544373	976.198425	2514.450439	1058.117188	5.325445
278.919464	930.687988	2509.899414	1033.086426	6.484150
279.294464	935.239075	2330.133301	1103.627563	12.071774
279.669464	985.300537	2459.837891	1080.872437	6.481484
280.044403	1012.606750	2380.194824	1069.494751	4.159732
280.419312	944.341125	2437.082764	1030.810913	5.792683
280.794189	1019.433350	2430.256104	1108.178589	6.290318
281.169037	1037.637451	2559.960938	1046.739624	0.597913
281.543854	998.953613	2553.134277	1117.280762	7.613474
281.918671	980.749451	2589.542725	1087.698975	6.647810
282.293365	987.576050	2869.431641	1092.250000	5.562273
282.668091	926.136963	2878.533936	1076.321289	7.692305
283.042786	978.473938	3003.687500	1049.015137	3.483149
283.417419	967.096313	3005.962891	1110.454102	7.031249
283.792053	980.749451	2889.911377	1080.872437	5.244342
284.166595	973.922913	2937.697266	1142.311401	8.574737
284.541138	960.269775	2785.237549	1144.586914	10.099748
284.915619	998.953613	2939.972900	1117.280762	6.096135
285.290100	1055.841675	2921.768799	1069.494751	0.731705
285.664520	996.678101	2894.462402	1085.423462	4.676262
286.038940	930.687988	2935.421875	1060.392700	6.469922
286.413300	987.576050	3140.218750	1080.872437	4.334040
286.787628	896.555176	3165.249512	1151.413574	11.233704
287.161896	955.718750	3219.861816	1133.209351	7.839195
287.536194	1001.229126	3304.056152	1178.719727	7.707509
287.910400	987.576050	3137.943115	1130.933838	6.666666
288.284607	937.514587	3074.228516	1099.076538	7.561235
288.658752	955.718750	2935.421875	1144.586914	9.540227
289.032867	971.647400	2814.819336	1185.546387	11.604939
289.406921	1005.780212	2851.227539	1115.005249	5.918622
289.781006	912.483826	2853.503174	1160.515625	12.778430
290.154999	1008.055725	2878.533936	1074.045776	3.527977
290.529022	1003.504700	3169.800537	1112.729614	5.042013
290.902954	910.208313	3112.912354	1112.729614	9.194213
291.276825	1026.259888	3253.994629	1155.964600	5.822269
291.650757	985.300537	3331.362549	1160.515625	7.468476
292.024597	960.269775	3297.229736	1101.352051	6.037000
292.398407	962.545288	3265.372314	1165.066650	8.794467
292.772156	969.371887	3119.739014	1117.280762	6.878308
293.145905	978.473938	3115.187988	1119.556274	6.602771
293.519592	989.851563	2969.554688	1064.943726	3.793102
293.893280	1037.637451	3053.749023	1117.280762	3.950342
294.266907	917.034912	3110.636963	1137.760376	10.062238
294.640533	980.749451	3294.954102	1146.862427	7.177973
295.014069	978.473938	3249.443604	1144.586914	7.314628
295.387604	1001.229126	3547.536865	1162.791138	6.344953
295.761078	1019.433350	3588.496338	1151.413574	5.137290
296.134552	967.096313	3465.618164	1105.903076	5.555555
296.507996	967.096313	3547.536865	1219.679199	9.788363
296.881378	923.861450	3549.812500	1178.719727	9.705370
297.254730	939.790100	3729.578613	1194.648438	9.135400
297.628021	1028.535400	3988.988037	1178.719727	5.073019
298.001282	953.443237	4034.498291	1224.230225	8.788774
298.374573	1019.433350	4091.386475	1312.975464	9.555553
298.747803	1001.229126	3909.344727	1219.679199	7.511739
299.121002	998.953613	3747.782715	1185.546387	6.788082
299.494141	885.177612	3602.149414	1169.617676	10.469011
299.867188	1001.229126	3565.741211	1206.026001	7.985802
300.240265	1001.229126	3388.250488	1176.444214	7.340323
300.613312	969.371887	3367.770752	1128.658325	6.641366
300.986328	1026.259888	3345.015625	1221.954712	8.439648
301.359314	987.576050	3203.933350	1165.066650	8.008212
301.732239	951.167725	3140.218750	1217.403687	12.162164
302.105103	921.585938	3265.372314	1128.658325	8.834951
302.477997	953.443237	3188.004639	1194.648438	10.794296
302.850830	1003.504700	3367.770752	1160.515625	6.641001
303.223602	1008.055725	3135.667725	1199.199463	8.983956
303.596375	1051.290649	3208.484375	1210.577026	7.383962
303.969116	973.922913	3071.953125	1160.515625	8.893709
304.341766	987.576050	3076.504150	1105.903076	5.664485
304.714478	980.749451	3156.147461	1130.933838	6.903766
305.087067	944.341125	3162.973877	1149.138062	9.230772
305.459656	989.851563	3144.769775	1192.372925	9.398100
305.832214	1003.504700	3172.075928	1155.964600	7.030431
306.204681	971.647400	3040.095703	1092.250000	5.830584
306.577148	907.932800	3056.024414	1055.841675	6.885594
306.949646	998.953613	3140.218750	1117.280762	5.526039
307.322021	921.585938	3167.524902	1130.933838	9.321175
307.694397	935.239075	3126.565674	1087.698975	6.957425
308.066742	1019.433350	3053.749023	1094.525513	3.691274
308.439026	980.749451	3324.535889	1119.556274	5.922333
308.811279	1001.229126	3217.586426	1078.596802	3.490758
309.183502	998.953613	3417.832275	1121.831787	5.079964
309.555695	946.616638	3481.546875	1171.893188	8.886893
309.927887	951.167725	3415.556641	1101.352051	6.094181
310.299988	1023.984375	3556.638916	1190.097412	6.558851
310.672058	942.065613	3499.750977	1089.974487	5.782919
311.044128	946.616638	3558.914551	1124.107300	6.794426
311.416168	914.759338	3654.486328	1192.372925	10.132892
311.788147	942.065613	3636.282227	1153.689087	7.854732
312.160065	967.096313	3615.802490	1165.066650	7.474228
312.531982	944.341125	3549.812500	1201.474976	9.868995
312.903870	992.127075	3433.760986	1171.893188	7.362534
313.275696	948.892151	3417.832275	1171.893188	9.032258
313.647491	1014.882263	3319.984863	1185.546387	7.403754
314.019318	1001.229126	3404.179199	1133.209351	5.492424
314.391022	1017.157776	3415.556641	1133.209351	4.838710
314.762726	1003.504700	3445.138428	1051.290649	1.957130
315.134369	989.851563	3563.465576	1126.382813	5.305040
315.505981	937.514587	3699.996826	1151.413574	7.743000
315.877594	976.198425	3759.160400	1051.290649	2.698284
316.249146	1049.015137	3593.047363	1240.158813	7.513414
316.620636	928.412476	3467.893799	1142.311401	8.422937
316.992157	973.922913	3276.750000	1133.209351	6.916995
317.363586	896.555176	3290.403076	1144.586914	10.361216
317.735016	985.300537	3256.270264	1171.893188	8.216431
318.106354	960.269775	3304.056152	1169.617676	8.932038
318.477722	1026.259888	3347.291016	1012.606750	-0.588236
318.849060	919.310425	3253.994629	1130.933838	9.064327
319.220306	910.208313	3244.892578	1219.679199	13.255363
319.591522	1014.882263	3442.863037	1167.342163	6.279288
319.962738	985.300537	3454.240479	1119.556274	5.437788
320.333923	944.341125	3304.056152	1101.352051	6.653809
320.705017	1042.188477	3310.882813	1094.525513	2.306923
321.076111	998.953613	3329.086914	1115.005249	4.980472
321.447144	978.473938	3283.576416	1126.382813	6.416585
