Jaz Data File
++++++++++++++++++++++++++++++++++++
Date: Wed Feb 07 06:47:20 2024
User: jaz
Dark Spectrum Present: Yes
Reference Spectrum Present: Yes
Processed Spectrum Present: Yes
Spectrometers: JAZA3692
Integration Time (usec): 47000 (JAZA3692)
Spectra Averaged: 1 (JAZA3692)
Boxcar Smoothing: 0 (JAZA3692)
Correct for Electrical Dark: No (JAZA3692)
Strobe/Lamp Enabled: Yes (JAZA3692)
Correct for Detector Non-linearity: No (JAZA3692)
Correct for Stray Light: No (JAZA3692)
Number of Pixels in Processed Spectrum: 2048
>>>>>Begin Processed Spectral Data<<<<<
W	D	R	S	P
190.244385	0.000000	0.000000	0.000000	0.000000
190.627136	0.000000	0.000000	0.000000	0.000000
191.009842	1044.463989	1105.903076	1071.770264	44.444466
191.392532	964.820801	1023.984375	1085.423462	203.846130
191.775177	1033.086426	971.647400	1005.780212	44.444412
192.157791	1092.250000	1023.984375	1035.361938	83.333389
192.540390	1117.280762	1112.729614	955.718750	3549.918213
192.922943	1119.556274	1058.117188	1060.392700	96.296310
193.305481	1064.943726	1151.413574	996.678101	-78.947319
193.687958	1089.974487	1037.637451	978.473938	213.043304
194.070419	1162.791138	1089.974487	1062.668213	137.500046
194.452866	1060.392700	1130.933838	1108.178589	67.741875
194.835251	1115.005249	1117.280762	1089.974487	-1100.005371
195.217621	1049.015137	1049.015137	1017.157776	0.000000
195.599960	1033.086426	1105.903076	1039.912964	9.374969
195.982254	1158.240112	1094.525513	1087.698975	110.714241
196.364517	1094.525513	1144.586914	1080.872437	-27.272661
196.746750	1101.352051	1167.342163	1062.668213	-58.620659
197.128952	1119.556274	1060.392700	1080.872437	65.384552
197.511139	1137.760376	1055.841675	1115.005249	27.777695
197.893280	1101.352051	1021.708862	1055.841675	57.142834
198.275391	1117.280762	1076.321289	1076.321289	100.000000
198.657471	1128.658325	1069.494751	1096.801025	53.846138
199.039520	989.851563	1108.178589	1085.423462	80.769287
199.421539	1089.974487	1087.698975	1067.219238	1000.005371
199.803513	1099.076538	1039.912964	1069.494751	50.000000
200.185471	1017.157776	1140.035889	1071.770264	44.444439
200.567383	1053.566162	1124.107300	1028.535400	-35.483921
200.949265	1087.698975	1094.525513	1001.229126	-1266.671997
201.331131	1042.188477	1128.658325	1019.433350	-26.315678
201.712967	1049.015137	1069.494751	1037.637451	-55.556152
202.094742	1105.903076	1115.005249	1012.606750	-1024.989624
202.476517	1128.658325	1135.484863	1023.984375	-1533.338745
202.858231	1128.658325	1055.841675	1094.525513	46.875011
203.239944	1071.770264	1144.586914	1069.494751	-3.124990
203.621582	1137.760376	1026.259888	1023.984375	102.040810
204.003235	1108.178589	1037.637451	1074.045776	48.387104
204.384827	1060.392700	1053.566162	1060.392700	-0.000000
204.766388	1055.841675	1142.311401	1026.259888	-34.210571
205.147934	1092.250000	1105.903076	1049.015137	-316.667572
205.529449	1064.943726	1162.791138	1087.698975	23.255852
205.910904	1140.035889	1124.107300	1103.627563	228.572189
206.292343	1037.637451	1151.413574	1135.484863	85.999954
206.673767	1044.463989	1112.729614	998.953613	-66.666611
207.055115	1044.463989	1137.760376	1053.566162	9.756190
207.436462	1105.903076	1201.474976	1021.708862	-88.095154
207.817780	1078.596802	1119.556274	971.647400	-261.110291
208.199051	1142.311401	1089.974487	1028.535400	217.391495
208.580307	1076.321289	1140.035889	1008.055725	-107.142731
208.961517	1094.525513	1064.943726	1030.810913	215.384552
209.342712	1060.392700	1151.413574	1069.494751	9.999960
209.723846	1074.045776	1112.729614	1119.556274	117.647316
210.104965	1053.566162	1062.668213	1044.463989	-100.001343
210.486069	1074.045776	1096.801025	1037.637451	-159.999680
210.867111	1074.045776	1117.280762	1012.606750	-142.104889
211.248123	1085.423462	1112.729614	987.576050	-358.334686
211.629120	1069.494751	1146.862427	1064.943726	-5.882334
212.010071	980.749451	1094.525513	942.065613	-33.999981
212.390991	1026.259888	1119.556274	1017.157776	-9.756124
212.771881	1058.117188	1171.893188	1053.566162	-3.999987
213.152756	1062.668213	1046.739624	1074.045776	-71.428574
213.533569	998.953613	1085.423462	1085.423462	100.000000
213.914368	1030.810913	1087.698975	1010.331238	-35.999954
214.295135	1067.219238	1108.178589	1074.045776	16.666616
214.675858	1087.698975	1126.382813	1008.055725	-205.882492
215.056549	1103.627563	1151.413574	1017.157776	-180.952103
215.437225	1010.331238	1103.627563	1010.331238	0.000000
215.817841	1101.352051	1080.872437	978.473938	600.002075
216.198441	1019.433350	1142.311401	1005.780212	-11.111128
216.579025	1119.556274	1074.045776	985.300537	294.999481
216.959549	1112.729614	1112.729614	960.269775	0.000000
217.340057	1021.708862	1115.005249	1030.810913	9.756060
217.720535	1105.903076	1028.535400	1087.698975	23.529337
218.100967	1083.147949	1060.392700	1080.872437	9.999947
218.481369	1096.801025	1049.015137	1062.668213	71.428642
218.861740	1019.433350	1067.219238	1099.076538	166.666748
219.242065	1060.392700	1103.627563	1087.698975	63.157997
219.622391	1064.943726	1089.974487	1069.494751	18.181730
220.002670	1055.841675	1137.760376	1058.117188	2.777770
220.382919	1092.250000	1128.658325	1078.596802	-37.500210
220.763123	1049.015137	1187.821899	1064.943726	11.475369
221.143295	1028.535400	1121.831787	1064.943726	39.024368
221.523453	1037.637451	1110.454102	1035.361938	-3.124990
221.903549	1135.484863	1087.698975	1085.423462	104.761894
222.283630	1096.801025	1055.841675	1094.525513	5.555539
222.663696	1085.423462	1051.290649	1001.229126	246.666855
223.043701	1144.586914	1119.556274	1019.433350	500.001465
223.423676	1096.801025	1112.729614	998.953613	-614.288025
223.803635	1026.259888	1071.770264	1035.361938	19.999947
224.183548	1046.739624	1117.280762	1035.361938	-16.129150
224.563431	1083.147949	1096.801025	1010.331238	-533.335571
224.943283	1087.698975	1108.178589	1053.566162	-166.667267
225.323105	1130.933838	1105.903076	1110.454102	81.818268
225.702881	1023.984375	1096.801025	1076.321289	71.874924
226.082642	1030.810913	1135.484863	1017.157776	-13.043491
226.462357	1042.188477	1178.719727	1035.361938	-4.999982
226.842041	1083.147949	1099.076538	1117.280762	214.286484
227.221695	1133.209351	1092.250000	1089.974487	105.555542
227.601318	1062.668213	1133.209351	1042.188477	-29.032331
227.980911	960.269775	1187.821899	1142.311401	79.999969
228.360474	1092.250000	1187.821899	1060.392700	-33.333332
228.739990	1033.086426	1167.342163	1049.015137	11.864454
229.119476	1124.107300	1240.158813	1094.525513	-25.490221
229.498932	1092.250000	1265.189575	983.024963	-63.157917
229.878372	1105.903076	1299.322388	1046.739624	-30.588182
230.257736	1080.872437	1299.322388	1012.606750	-31.250034
230.637115	998.953613	1363.036987	1049.015137	13.750016
231.016449	1071.770264	1374.414551	978.473938	-30.827057
231.395737	1089.974487	1385.792114	1033.086426	-19.230789
231.774994	1067.219238	1235.607788	1105.903076	22.972961
232.154221	1023.984375	1267.465088	971.647400	-21.495327
232.533417	1030.810913	1242.434326	1087.698975	26.881742
232.912582	1115.005249	1246.985352	1051.290649	-48.275913
233.291702	1026.259888	1274.291626	1092.250000	26.605511
233.670792	1103.627563	1281.118164	1128.658325	14.102585
234.049866	1121.831787	1258.363037	1078.596802	-31.666733
234.428894	1001.229126	1237.883301	1039.912964	16.346146
234.807892	1119.556274	1253.812012	1105.903076	-10.169545
235.186874	1076.321289	1319.802124	1078.596802	0.934576
235.565781	1083.147949	1308.424438	1026.259888	-25.252552
235.944687	1003.504700	1363.036987	1062.668213	16.455688
236.323547	1083.147949	1269.740601	1008.055725	-40.243935
236.702377	1083.147949	1317.526489	1042.188477	-17.475779
237.081177	1103.627563	1367.588013	1064.943726	-14.655165
237.459946	1060.392700	1338.006226	989.851563	-25.409834
237.838669	1069.494751	1315.250977	1058.117188	-4.629613
238.217361	1046.739624	1237.883301	1053.566162	3.571417
238.596039	1042.188477	1281.118164	1069.494751	11.428581
238.974670	1067.219238	1340.281738	1078.596802	4.166652
239.353271	1039.912964	1235.607788	996.678101	-22.093002
239.731842	1096.801025	1363.036987	976.198425	-45.299141
240.110367	1121.831787	1196.923950	1042.188477	-106.060745
240.488876	1044.463989	1392.618774	1062.668213	5.228773
240.867340	1028.535400	1356.210449	1001.229126	-8.333340
241.245789	1105.903076	1479.088501	1017.157776	-23.780483
241.624176	1115.005249	1485.915039	1060.392700	-14.723944
242.002548	1069.494751	1479.088501	1060.392700	-2.222214
242.380890	998.953613	1558.731689	1083.147949	15.040664
242.759186	1076.321289	1642.926025	1074.045776	-0.401605
243.137451	1010.331238	1847.722900	1089.974487	9.510872
243.515686	1035.361938	1890.957764	1080.872437	5.319159
243.893890	1069.494751	1909.161987	1069.494751	0.000000
244.272049	1028.535400	1888.682251	1055.841675	3.174606
244.650192	1058.117188	1802.212524	1008.055725	-6.727829
245.028290	1023.984375	1704.365112	1087.698975	9.364551
245.406357	1060.392700	1686.160889	1069.494751	1.454540
245.784393	1005.780212	1747.599976	1008.055725	0.306747
246.162384	1035.361938	1617.895264	1021.708862	-2.343742
246.540359	1026.259888	1649.752563	1019.433350	-1.094887
246.918289	1078.596802	1824.967651	1010.331238	-9.146333
247.296204	1096.801025	1988.805176	1115.005249	2.040823
247.674057	1178.719727	2220.908203	1067.219238	-10.698688
248.051895	1137.760376	2521.277100	1055.841675	-5.921049
248.429703	1062.668213	2598.644775	1101.352051	2.518517
248.807465	1099.076538	2471.215576	1149.138062	3.648429
249.185196	1096.801025	2471.215576	1069.494751	-1.986757
249.562897	1092.250000	2232.285889	1064.943726	-2.395212
249.940567	1126.382813	2164.020264	1026.259888	-9.649124
250.318192	1112.729614	1959.223389	1094.525513	-2.150530
250.695801	1030.810913	1879.580200	1087.698975	6.702417
251.073349	1028.535400	1840.896362	1037.637451	1.120444
251.450882	1092.250000	1793.110352	1035.361938	-8.116890
251.828400	1099.076538	1752.151001	1074.045776	-3.832758
252.205872	1087.698975	1772.630737	1078.596802	-1.328917
252.583313	1053.566162	1845.447388	1014.882263	-4.885063
252.960693	1028.535400	1947.845825	1019.433350	-0.990095
253.338074	1092.250000	2016.111450	1071.770264	-2.216754
253.715408	1117.280762	1966.049927	987.576050	-15.281507
254.092682	1037.637451	1872.753662	1076.321289	4.632150
254.469955	1076.321289	1806.763550	1076.321289	0.000000
254.847198	1017.157776	1686.160889	1067.219238	7.482994
255.224365	1099.076538	1747.599976	1053.566162	-7.017538
255.601563	1085.423462	1736.222412	1058.117188	-4.195808
255.978683	1103.627563	1708.916138	1076.321289	-4.511282
256.355743	1033.086426	1765.804199	1099.076538	9.006211
256.732819	1078.596802	1743.048950	1094.525513	2.397270
257.109894	1023.984375	1795.385864	987.576050	-4.719763
257.486877	1105.903076	1745.324463	1026.259888	-12.455509
257.863831	1083.147949	1799.937012	1035.361938	-6.666677
258.240753	1019.433350	1929.641602	1055.841675	4.000000
258.617645	1096.801025	1975.152100	1089.974487	-0.777199
258.994507	1099.076538	2047.968750	1062.668213	-3.836930
259.371307	1089.974487	2220.908203	1064.943726	-2.213283
259.748108	1089.974487	2200.428711	1080.872437	-0.819669
260.124878	1080.872437	2616.848877	978.473938	-6.666671
260.501617	1085.423462	2928.595215	1030.810913	-2.962966
260.878296	1064.943726	3208.484375	1069.494751	0.212313
261.254944	1119.556274	3390.525879	1058.117188	-2.705412
261.631561	1058.117188	3203.933350	1169.617676	5.196181
262.008179	1096.801025	2876.258301	1078.596802	-1.023021
262.384735	1058.117188	2523.552490	1092.250000	2.329193
262.761261	1076.321289	2298.276123	1060.392700	-1.303533
263.137695	1083.147949	2218.632813	1064.943726	-1.603212
263.514191	1071.770264	2189.051025	1135.484863	5.702649
263.890594	1012.606750	2168.571289	1030.810913	1.574803
264.267029	1074.045776	2177.673340	1071.770264	-0.206185
264.643341	1117.280762	2202.704102	1167.342163	4.612154
265.019653	1062.668213	2145.816162	1019.433350	-3.991594
265.395935	1083.147949	2175.397949	1105.903076	2.083326
265.772217	985.300537	2125.336426	1021.708862	3.193612
266.148407	1042.188477	2052.519775	1096.801025	5.405410
266.524597	1085.423462	2236.836914	1115.005249	2.569172
266.900726	1062.668213	2243.663574	1019.433350	-3.660883
267.276855	1085.423462	2339.235352	1105.903076	1.633388
267.652924	1083.147949	2446.184814	1110.454102	2.003332
268.028992	1028.535400	2462.113525	1062.668213	2.380952
268.404999	1094.525513	2466.664551	1044.463989	-3.648429
268.781006	1128.658325	2361.990479	1117.280762	-0.922506
269.156921	985.300537	2268.694336	1133.209351	11.524819
269.532837	1105.903076	2336.959961	1112.729614	0.554527
269.908661	1010.331238	2459.837891	1094.525513	5.808478
270.284546	1053.566162	2380.194824	1089.974487	2.744425
270.660339	1039.912964	2491.695313	1101.352051	4.231977
271.036133	1071.770264	2484.868652	1089.974487	1.288249
271.411835	1076.321289	2573.614014	1058.117188	-1.215801
271.787537	1035.361938	2853.503174	1078.596802	2.377970
272.163239	1030.810913	2965.003662	1146.862427	5.999997
272.538849	1046.739624	3090.157227	957.994263	-4.342987
272.914459	1010.331238	3144.769775	1076.321289	3.091682
273.290070	1092.250000	2944.523926	1108.178589	0.859948
273.665588	1130.933838	2919.493164	1103.627563	-1.526719
274.041046	1055.841675	2949.074951	1055.841675	0.000000
274.416565	1044.463989	2798.890625	1076.321289	1.815824
274.791962	1071.770264	2751.104736	1039.912964	-1.897019
275.167389	1092.250000	2687.390137	1142.311401	3.138370
275.542755	1028.535400	2682.839111	1110.454102	4.951854
275.918060	1014.882263	2689.665527	1110.454102	5.706520
276.293365	1053.566162	2698.767578	1092.250000	2.351313
276.668640	1076.321289	2619.124512	1089.974487	0.884960
277.043854	1094.525513	2655.532715	1053.566162	-2.623905
277.419037	1092.250000	2757.931152	1144.586914	3.142073
277.794189	1008.055725	2735.176025	1146.862427	8.036886
278.169312	1087.698975	2757.931152	1117.280762	1.771118
278.544373	1014.882263	2776.135498	1023.984375	0.516797
278.919464	1051.290649	2735.176025	1039.912964	-0.675681
279.294464	1124.107300	2803.441650	1126.382813	0.135501
279.669464	1071.770264	2771.584229	1092.250000	1.204822
280.044403	1014.882263	2801.166016	1101.352051	4.840765
280.419312	1010.331238	2810.268311	1044.463989	1.896330
280.794189	1087.698975	2848.952148	1078.596802	-0.516801
281.169037	1069.494751	2990.034424	1046.739624	-1.184830
281.543854	1071.770264	3008.238525	1110.454102	1.997649
281.918671	1110.454102	3076.504150	1064.943726	-2.314813
282.293365	1067.219238	3224.413086	1064.943726	-0.105485
282.668091	1062.668213	3210.759766	1137.760376	3.495762
283.042786	1112.729614	3379.148438	1078.596802	-1.506024
283.417419	1176.444214	3470.169189	1101.352051	-3.273808
283.792053	1105.903076	3279.025391	1058.117188	-2.198951
284.166595	1080.872437	3192.555664	1051.290649	-1.400863
284.541138	1033.086426	3165.249512	1083.147949	2.347922
284.915619	1021.708862	3115.187988	1044.463989	1.086953
285.290100	1169.617676	3358.668701	1108.178589	-2.806654
285.664520	1017.157776	3390.525879	1085.423462	2.876321
286.038940	1071.770264	3465.618164	1046.739624	-1.045624
286.413300	1042.188477	3476.995850	1089.974487	1.962620
286.787628	1058.117188	3679.517090	1076.321289	0.694442
287.161896	1133.209351	3843.354736	1083.147949	-1.847185
287.536194	1012.606750	3718.200928	1062.668213	1.850295
287.910400	1060.392700	3702.272461	1174.168701	4.306630
288.284607	1103.627563	3379.148438	1160.515625	2.500002
288.658752	1017.157776	3306.331787	1101.352051	3.677933
289.032867	1042.188477	3210.759766	1101.352051	2.728228
289.406921	1085.423462	3356.393066	1058.117188	-1.202406
289.781006	1030.810913	3372.321777	1121.831787	3.887271
290.154999	1035.361938	3269.923340	1085.423462	2.240329
290.529022	1087.698975	3520.230713	1085.423462	-0.093545
290.902954	1101.352051	3690.894775	1053.566162	-1.845341
291.276825	1074.045776	3843.354736	1115.005249	1.479050
291.650757	1085.423462	3877.487549	1074.045776	-0.407501
292.024597	1101.352051	3922.997803	1121.831787	0.725808
292.398407	1103.627563	3597.598389	1149.138062	1.824821
292.772156	1108.178589	3545.261475	1085.423462	-0.933703
293.145905	1058.117188	3404.179199	1133.209351	3.200775
293.519592	1058.117188	3395.077148	1105.903076	2.044789
293.893280	1196.923950	3527.057129	1076.321289	-5.175784
294.266907	1076.321289	3595.322754	1112.729614	1.445348
294.640533	989.851563	3638.557861	1067.219238	2.920961
295.014069	978.473938	3918.446777	1089.974487	3.792571
295.387604	1128.658325	4032.222900	1094.525513	-1.175549
295.761078	1060.392700	4004.916504	1171.893188	3.786707
296.134552	1135.484863	4041.324951	1115.005249	-0.704774
296.507996	1062.668213	4050.427002	1074.045776	0.380806
296.881378	1051.290649	4045.875977	1051.290649	0.000000
297.254730	1076.321289	4289.356934	1115.005249	1.203969
297.628021	962.545288	4607.929688	1115.005249	4.182274
298.001282	1058.117188	4612.480469	1180.995239	3.457104
298.374573	1026.259888	4805.899902	1142.311401	3.070438
298.747803	1101.352051	4644.337891	1033.086426	-1.926782
299.121002	1042.188477	4323.489746	1121.831787	2.427187
299.494141	1119.556274	4143.723145	1053.566162	-2.182092
299.867188	1074.045776	4107.314941	1039.912964	-1.125281
300.240265	1078.596802	3941.202148	1094.525513	0.556441
300.613312	1071.770264	3820.599365	1074.045776	0.082781
300.986328	1089.974487	3818.323975	1010.331238	-2.919100
301.359314	1087.698975	3704.547852	1110.454102	0.869562
301.732239	1085.423462	3734.129639	1089.974487	0.171821
302.105103	1014.882263	3781.915527	1142.311401	4.605262
302.477997	1119.556274	3706.823486	1140.035889	0.791554
302.850830	1094.525513	3761.435791	1151.413574	2.133107
303.223602	1053.566162	3806.946289	1135.484863	2.975205
303.596375	1042.188477	3831.977051	1155.964600	4.078306
303.969116	1094.525513	3649.935303	1105.903076	0.445234
304.341766	1099.076538	3552.087891	1137.760376	1.576994
304.714478	1089.974487	3536.159424	1146.862427	2.325578
305.087067	1089.974487	3533.883789	1140.035889	2.048415
305.459656	1069.494751	3645.384277	1206.026001	5.300353
305.832214	1076.321289	3563.465576	1153.689087	3.110708
306.204681	1162.791138	3554.363525	1201.474976	1.617507
306.577148	1030.810913	3506.577637	1224.230225	7.812502
306.949646	1085.423462	3713.649902	1258.363037	6.580086
307.322021	1074.045776	3668.139648	1233.332275	6.140352
307.694397	1039.912964	3579.394287	1219.679199	7.078856
308.066742	1069.494751	3595.322754	1331.179688	10.360362
308.439026	992.127075	3818.323975	1274.291626	9.983896
308.811279	1146.862427	3761.435791	1376.690063	8.790255
309.183502	1019.433350	3948.028564	1381.241089	12.354310
309.555695	983.024963	3954.855225	1372.139038	13.093415
309.927887	1033.086426	3991.263428	1417.649414	12.999999
310.299988	1121.831787	4070.906738	1381.241089	8.796294
310.672058	1103.627563	4064.080078	1422.200562	10.760956
311.044128	1069.494751	4239.295410	1501.843750	13.639627
311.416168	1092.250000	4255.224121	1495.017212	12.733813
311.788147	1085.423462	4159.651855	1451.782227	11.917096
312.160065	1124.107300	4089.110840	1490.466064	12.356099
312.531982	1096.801025	4123.243652	1595.140137	16.466167
312.903870	1089.974487	3954.855225	1529.150024	15.329626
313.275696	1019.433350	3893.416016	1529.150024	17.735552
313.647491	1037.637451	4004.916504	1490.466064	15.260736
314.019318	1153.689087	3763.711426	1492.741699	12.990410
314.391022	1044.463989	3765.986816	1492.741699	16.471575
314.762726	1046.739624	3913.895752	1488.190552	15.396821
315.134369	1074.045776	4023.120850	1590.588989	17.515430
315.505981	1089.974487	4287.081055	1640.650513	17.224201
315.877594	1037.637451	4321.213867	1567.833862	16.146919
316.249146	1099.076538	4127.794922	1504.119263	13.373404
316.620636	1030.810913	3927.548828	1510.945801	16.575020
316.992157	1105.903076	3809.221924	1542.803101	16.161617
317.363586	1035.361938	3836.528076	1513.221313	17.059301
317.735016	1089.974487	3690.894775	1499.568237	15.748031
318.106354	1055.841675	3781.915527	1433.578125	13.856428
318.477722	1044.463989	3784.191162	1433.578125	14.202661
318.849060	1074.045776	3788.742188	1517.772339	16.345348
