Jaz Data File
++++++++++++++++++++++++++++++++++++
Date: Wed Feb 07 06:49:34 2024
User: jaz
Dark Spectrum Present: Yes
Reference Spectrum Present: Yes
Processed Spectrum Present: Yes
Spectrometers: JAZA3692
Integration Time (usec): 40000 (JAZA3692)
Spectra Averaged: 1 (JAZA3692)
Boxcar Smoothing: 0 (JAZA3692)
Correct for Electrical Dark: No (JAZA3692)
Strobe/Lamp Enabled: Yes (JAZA3692)
Correct for Detector Non-linearity: No (JAZA3692)
Correct for Stray Light: No (JAZA3692)
Number of Pixels in Processed Spectrum: 2048
>>>>>Begin Processed Spectral Data<<<<<
W	D	R	S	P
190.244385	0.000000	0.000000	0.000000	0.000000
190.627136	0.000000	0.000000	0.000000	0.000000
191.009842	971.647400	973.922913	985.300537	600.002686
191.392532	1005.780212	971.647400	1008.055725	-6.666643
191.775177	1010.331238	1008.055725	942.065613	3000.010742
192.157791	998.953613	969.371887	983.024963	53.846249
192.540390	1026.259888	987.576050	960.269775	170.588333
192.922943	1017.157776	1030.810913	987.576050	-216.666138
193.305481	1058.117188	939.790100	932.963501	105.769264
193.687958	1105.903076	1035.361938	994.402588	158.064484
194.070419	1085.423462	1010.331238	962.545288	163.636353
194.452866	1103.627563	1171.893188	967.096313	-200.000000
194.835251	1012.606750	998.953613	1058.117188	-333.333191
195.217621	1055.841675	1064.943726	983.024963	-800.003357
195.599960	1071.770264	1035.361938	1101.352051	-81.250061
195.982254	1076.321289	1089.974487	1039.912964	-266.665192
196.364517	1028.535400	1039.912964	1089.974487	540.002136
196.746750	1033.086426	1076.321289	1046.739624	31.579140
197.128952	1021.708862	1035.361938	1023.984375	16.666666
197.511139	1051.290649	1074.045776	992.127075	-260.001068
197.893280	983.024963	1087.698975	1071.770264	84.782555
198.275391	1042.188477	1035.361938	976.198425	966.669373
198.657471	1089.974487	1037.637451	1010.331238	152.173782
199.039520	1046.739624	1069.494751	1026.259888	-90.000534
199.421539	1017.157776	1064.943726	1035.361938	38.095219
199.803513	1083.147949	973.922913	1039.912964	39.583401
200.185471	1008.055725	1012.606750	1005.780212	-50.000000
200.567383	1033.086426	1071.770264	1060.392700	70.588326
200.949265	1030.810913	1005.780212	1012.606750	72.727341
201.331131	1012.606750	1083.147949	1042.188477	41.935390
201.712967	1026.259888	1044.463989	989.851563	-200.000671
202.094742	1012.606750	1035.361938	1033.086426	90.000031
202.476517	1058.117188	1046.739624	1010.331238	420.001617
202.858231	1039.912964	1005.780212	1001.229126	113.333488
203.239944	996.678101	1021.708862	976.198425	-81.818024
203.621582	998.953613	1021.708862	1001.229126	9.999947
204.003235	1076.321289	1033.086426	1014.882263	142.105286
204.384827	1049.015137	1033.086426	1012.606750	228.570831
204.766388	1096.801025	985.300537	1092.250000	4.081619
205.147934	992.127075	1042.188477	1037.637451	90.909111
205.529449	1026.259888	1035.361938	1042.188477	175.000000
205.910904	1028.535400	1001.229126	1012.606750	58.333298
206.292343	1001.229126	1005.780212	1026.259888	549.995300
206.673767	1021.708862	1003.504700	1001.229126	112.500290
207.055115	1044.463989	1094.525513	1049.015137	9.091108
207.436462	1023.984375	1005.780212	953.443237	387.500031
207.817780	1028.535400	1051.290649	1019.433350	-39.999786
208.199051	1037.637451	1055.841675	992.127075	-249.998993
208.580307	1053.566162	1026.259888	1058.117188	-16.666592
208.961517	983.024963	1012.606750	969.371887	-46.153656
209.342712	1026.259888	1058.117188	987.576050	-121.428490
209.723846	1001.229126	1030.810913	948.892151	-176.922958
210.104965	1078.596802	1055.841675	983.024963	420.001343
210.486069	998.953613	1094.525513	983.024963	-16.666666
210.867111	1008.055725	1069.494751	971.647400	-59.259281
211.248123	992.127075	1055.841675	1049.015137	89.285759
211.629120	1003.504700	1019.433350	948.892151	-342.857361
212.010071	1026.259888	1053.566162	980.749451	-166.666595
212.390991	1001.229126	1099.076538	1064.943726	65.116287
212.771881	1012.606750	1026.259888	1067.219238	399.999542
213.152756	1012.606750	1044.463989	1121.831787	342.857819
213.533569	969.371887	1044.463989	978.473938	12.121182
213.914368	1003.504700	1051.290649	985.300537	-38.095219
214.295135	1051.290649	1099.076538	971.647400	-166.666885
214.675858	1033.086426	980.749451	969.371887	121.739052
215.056549	1019.433350	964.820801	951.167725	124.999886
215.437225	996.678101	1046.739624	969.371887	-54.545311
215.817841	937.514587	1019.433350	1008.055725	86.111092
216.198441	921.585938	1074.045776	898.830688	-14.925406
216.579025	964.820801	1049.015137	967.096313	2.702691
216.959549	1019.433350	1042.188477	1017.157776	-10.000268
217.340057	1033.086426	987.576050	969.371887	140.000031
217.720535	996.678101	1021.708862	1003.504700	27.272839
218.100967	957.994263	1069.494751	976.198425	16.326532
218.481369	1035.361938	1069.494751	1017.157776	-53.333321
218.861740	1133.209351	1042.188477	998.953613	147.499939
219.242065	1010.331238	1112.729614	932.963501	-75.555626
219.622391	1051.290649	1089.974487	1060.392700	23.529337
220.002670	1060.392700	1115.005249	1039.912964	-37.500057
220.382919	1001.229126	1153.689087	967.096313	-22.388050
220.763123	1096.801025	1039.912964	1003.504700	163.999832
221.143295	1028.535400	1096.801025	1058.117188	43.333359
221.523453	1060.392700	1099.076538	1035.361938	-64.705994
221.903549	1008.055725	1101.352051	1044.463989	39.024326
222.283630	1051.290649	1026.259888	964.820801	345.454315
222.663696	1010.331238	1046.739624	1001.229126	-25.000042
223.043701	989.851563	1039.912964	948.892151	-81.818352
223.423676	967.096313	1044.463989	996.678101	38.235332
223.803635	1051.290649	1067.219238	917.034912	-842.860229
224.183548	1010.331238	1135.484863	971.647400	-30.909082
224.563431	1049.015137	1062.668213	1010.331238	-283.334686
224.943283	1071.770264	1035.361938	1017.157776	150.000000
225.323105	1010.331238	1078.596802	1074.045776	93.333351
225.702881	994.402588	973.922913	1023.984375	-144.444611
226.082642	1014.882263	1046.739624	1053.566162	121.428452
226.462357	1026.259888	1028.535400	969.371887	-2500.008057
226.842041	1026.259888	1083.147949	1003.504700	-39.999935
227.221695	1035.361938	1089.974487	1035.361938	0.000000
227.601318	1010.331238	1087.698975	1023.984375	17.647068
227.980911	969.371887	1105.903076	1044.463989	54.999962
228.360474	996.678101	1078.596802	996.678101	0.000000
228.739990	1042.188477	1085.423462	1074.045776	73.684074
229.119476	998.953613	1183.270874	1008.055725	4.938285
229.498932	1044.463989	1178.719727	978.473938	-49.152500
229.878372	1060.392700	1096.801025	1028.535400	-87.500038
230.257736	969.371887	1294.771362	1019.433350	15.384617
230.637115	978.473938	1217.403687	930.687988	-20.000000
231.016449	930.687988	1267.465088	976.198425	13.513519
231.395737	976.198425	1176.444214	1012.606750	18.181818
231.774994	1037.637451	1215.128052	1008.055725	-16.666643
232.154221	987.576050	1190.097412	923.861450	-31.460680
232.533417	1008.055725	1242.434326	1046.739624	16.504877
232.912582	1037.637451	1192.372925	976.198425	-39.705845
233.291702	1033.086426	1180.995239	1037.637451	3.076913
233.670792	989.851563	1153.689087	1003.504700	8.333340
234.049866	1026.259888	1124.107300	1023.984375	-2.325573
234.428894	1014.882263	1105.903076	1094.525513	87.500038
234.807892	992.127075	1187.821899	985.300537	-3.488359
235.186874	1008.055725	1155.964600	994.402588	-9.230776
235.565781	1044.463989	1262.914063	1028.535400	-7.291638
235.944687	985.300537	1240.158813	1017.157776	12.499982
236.323547	992.127075	1160.515625	1001.229126	5.405386
236.702377	1026.259888	1215.128052	1003.504700	-12.048186
237.081177	1062.668213	1224.230225	1021.708862	-25.352093
237.459946	1028.535400	1187.821899	1005.780212	-14.285698
237.838669	1003.504700	1269.740601	1078.596802	28.205099
238.217361	1035.361938	1176.444214	1019.433350	-11.290283
238.596039	1017.157776	1224.230225	962.545288	-26.373613
238.974670	1053.566162	1176.444214	989.851563	-51.851894
239.353271	1028.535400	1190.097412	1030.810913	1.408445
239.731842	1128.658325	1265.189575	939.790100	-138.333328
240.110367	1058.117188	1285.669312	1044.463989	-6.000031
240.488876	1023.984375	1290.220337	1094.525513	26.495722
240.867340	1035.361938	1283.393677	1023.984375	-4.587140
241.245789	955.718750	1335.730713	1044.463989	23.353275
241.624176	930.687988	1374.414551	951.167725	4.615396
242.002548	1026.259888	1353.934937	1039.912964	4.166651
242.380890	1026.259888	1415.373901	1046.739624	5.263171
242.759186	948.892151	1501.843750	1012.606750	11.522635
243.137451	1049.015137	1501.843750	1012.606750	-8.040214
243.515686	1044.463989	1581.486938	1046.739624	0.423750
243.893890	998.953613	1686.160889	989.851563	-1.324499
244.272049	1094.525513	1561.007324	1042.188477	-11.219523
244.650192	1014.882263	1474.537476	1058.117188	9.405947
245.028290	1112.729614	1483.639526	1058.117188	-14.723906
245.406357	951.167725	1501.843750	1035.361938	15.289247
245.784393	985.300537	1451.782227	973.922913	-2.439029
246.162384	1026.259888	1481.364014	976.198425	-11.000002
246.540359	1087.698975	1504.119263	998.953613	-21.311489
246.918289	1037.637451	1649.752563	1001.229126	-5.947954
247.296204	1033.086426	1713.467163	1105.903076	10.702338
247.674057	992.127075	1954.672363	1037.637451	4.728128
248.051895	955.718750	2175.397949	1101.352051	11.940295
248.429703	1012.606750	2120.785400	957.994263	-4.928130
248.807465	985.300537	2104.856689	994.402588	0.813005
249.185196	1067.219238	2034.315552	1028.535400	-3.999999
249.562897	1033.086426	1827.243164	1069.494751	4.584527
249.940567	998.953613	1774.906250	987.576050	-1.466270
250.318192	1076.321289	1681.609863	1019.433350	-9.398482
250.695801	1085.423462	1674.783325	1062.668213	-3.861011
251.073349	1014.882263	1558.731689	969.371887	-8.368195
251.450882	1044.463989	1611.068726	1051.290649	1.204836
251.828400	1053.566162	1492.741699	976.198425	-17.616587
252.205872	1051.290649	1540.527588	994.402588	-11.627916
252.583313	1067.219238	1638.375000	1010.331238	-9.960155
252.960693	1014.882263	1729.395752	1019.433350	0.636949
253.338074	1005.780212	1733.946899	971.647400	-4.687500
253.715408	1023.984375	1820.416626	948.892151	-9.428576
254.092682	1074.045776	1679.334351	1019.433350	-9.022544
254.469955	1051.290649	1592.864502	1049.015137	-0.420167
254.847198	1001.229126	1601.966675	1008.055725	1.136370
255.224365	1035.361938	1517.772339	985.300537	-10.377347
255.601563	1133.209351	1483.639526	1053.566162	-22.727262
255.978683	928.412476	1595.140137	992.127075	9.556315
256.355743	1062.668213	1567.833862	1005.780212	-11.261256
256.732819	1049.015137	1547.354126	1096.801025	9.589033
257.109894	996.678101	1510.945801	1105.903076	21.238934
257.486877	957.994263	1565.558350	996.678101	6.367038
257.863831	976.198425	1636.099487	978.473938	0.344826
258.240753	1060.392700	1704.365112	1058.117188	-0.353356
258.617645	989.851563	1638.375000	1035.361938	7.017538
258.994507	996.678101	1731.671387	1028.535400	4.334366
259.371307	1053.566162	1724.844727	1021.708862	-4.745765
259.748108	1001.229126	1915.988525	964.820801	-3.980098
260.124878	1008.055725	2100.305664	1026.259888	1.666666
260.501617	1001.229126	2336.959961	960.269775	-3.066437
260.878296	1074.045776	2564.511963	980.749451	-6.259540
261.254944	1074.045776	2650.981689	1012.606750	-3.896102
261.631561	976.198425	2519.001465	1039.912964	4.129791
262.008179	1023.984375	2323.306641	1033.086426	0.700523
262.384735	1028.535400	2095.754639	953.443237	-7.036245
262.761261	987.576050	1952.396851	1035.361938	4.952825
263.137695	1033.086426	1865.927002	964.820801	-8.196722
263.514191	1067.219238	1843.171875	1001.229126	-8.504399
263.890594	1083.147949	1831.794189	1076.321289	-0.911867
264.267029	1030.810913	1831.794189	1089.974487	7.386368
264.643341	973.922913	1925.090576	1055.841675	8.612442
265.019653	1023.984375	1845.447388	1117.280762	11.357345
265.395935	1044.463989	1692.987427	1046.739624	0.350895
265.772217	1085.423462	1777.181763	989.851563	-13.815794
266.148407	989.851563	1829.518677	987.576050	-0.271002
266.524597	1033.086426	1806.763550	1062.668213	3.823531
266.900726	1026.259888	1888.682251	996.678101	-3.430081
267.276855	1008.055725	1906.886475	967.096313	-4.556966
267.652924	1110.454102	2079.825928	1049.015137	-6.338018
268.028992	1019.433350	2020.662476	1030.810913	1.136360
268.404999	983.024963	2050.244141	1044.463989	5.756927
268.781006	1044.463989	2077.550537	1021.708862	-2.202635
269.156921	1067.219238	2104.856689	994.402588	-7.017543
269.532837	996.678101	2034.315552	1085.423462	8.552637
269.908661	989.851563	2072.999512	1058.117188	6.302521
270.284546	1051.290649	1993.356201	983.024963	-7.246384
270.660339	1033.086426	2025.213501	1035.361938	0.229357
271.036133	1003.504700	2168.571289	912.483826	-7.812504
271.411835	1026.259888	2143.540527	1042.188477	1.425657
271.787537	967.096313	2305.102539	978.473938	0.850342
272.163239	1014.882263	2402.949951	1051.290649	2.622955
272.538849	973.922913	2484.868652	1012.606750	2.560240
272.914459	1019.433350	2564.511963	1055.841675	2.356406
273.290070	1067.219238	2282.347412	1039.912964	-2.247193
273.665588	973.922913	2191.326416	1010.331238	2.990654
274.041046	1019.433350	2280.071777	1058.117188	3.068591
274.416565	971.647400	2211.806152	1087.698975	9.357800
274.791962	996.678101	2302.827148	1044.463989	3.658533
275.167389	1064.943726	2157.193604	1019.433350	-4.166663
275.542755	1014.882263	2198.153076	960.269775	-4.615384
275.918060	1017.157776	2175.397949	1074.045776	4.911589
276.293365	1035.361938	2161.744873	1058.117188	2.020205
276.668640	1103.627563	2202.704102	960.269775	-13.043476
277.043854	987.576050	2366.541748	1030.810913	3.135311
277.419037	1037.637451	2311.929199	1039.912964	0.178571
277.794189	1021.708862	2252.765625	1028.535400	0.554527
278.169312	1017.157776	2348.337402	1012.606750	-0.341879
278.544373	1028.535400	2323.306641	1037.637451	0.702985
278.919464	1010.331238	2348.337402	1083.147949	5.442181
279.294464	960.269775	2311.929199	1064.943726	7.744107
279.669464	1026.259888	2259.592041	1092.250000	5.350555
280.044403	989.851563	2202.704102	1042.188477	4.315192
280.419312	1046.739624	2293.724854	1003.504700	-3.467156
280.794189	1014.882263	2400.674561	1146.862427	9.523806
281.169037	1074.045776	2348.337402	960.269775	-8.928569
281.543854	1037.637451	2407.500977	1005.780212	-2.325577
281.918671	1017.157776	2434.807373	1044.463989	1.926161
282.293365	992.127075	2557.685303	1046.739624	3.488375
282.668091	1021.708862	2632.777588	1010.331238	-0.706216
283.042786	1028.535400	2767.033203	1028.535400	0.000000
283.417419	1021.708862	2676.012451	1119.556274	5.914719
283.792053	1142.311401	2707.869873	964.820801	-11.337207
284.166595	1023.984375	2632.777588	1103.627563	4.950492
284.541138	1060.392700	2580.440674	1049.015137	-0.748500
284.915619	1069.494751	2484.868652	989.851563	-5.627007
285.290100	980.749451	2589.542725	1019.433350	2.404529
285.664520	1064.943726	2739.727051	1030.810913	-2.038043
286.038940	1140.035889	2830.747803	978.473938	-9.555853
286.413300	942.065613	2958.177002	1030.810913	4.401805
286.787628	1035.361938	2871.707275	1053.566162	0.991329
287.161896	1046.739624	2905.840088	973.922913	-3.916771
287.536194	1037.637451	2974.105713	1117.280762	4.112813
287.910400	1005.780212	2885.360352	1046.739624	2.179179
288.284607	1005.780212	2716.971924	1014.882263	0.531913
288.658752	1003.504700	2516.726074	987.576050	-1.052632
289.032867	976.198425	2569.062988	1026.259888	3.142858
289.406921	985.300537	2641.879639	1039.912964	3.296699
289.781006	1039.912964	2705.594238	1078.596802	2.322403
290.154999	1126.382813	2710.145264	962.545288	-10.344830
290.529022	1008.055725	2719.247314	1008.055725	0.000000
290.902954	989.851563	2930.870850	1053.566162	3.282533
291.276825	1064.943726	2965.003662	1001.229126	-3.353294
291.650757	1014.882263	3060.575439	1019.433350	0.222472
292.024597	1071.770264	3037.820313	1055.841675	-0.810182
292.398407	996.678101	2978.656738	992.127075	-0.229620
292.772156	1023.984375	2903.564453	973.922913	-2.663439
293.145905	1017.157776	2819.370361	1080.872437	3.535357
293.519592	1001.229126	2691.941162	1060.392700	3.499329
293.893280	937.514587	2687.390137	1051.290649	6.501952
294.266907	967.096313	2801.166016	1092.250000	6.823824
294.640533	1030.810913	2871.707275	1110.454102	4.326326
295.014069	978.473938	3069.677490	1017.157776	1.849836
295.387604	955.718750	3249.443604	1085.423462	5.654763
295.761078	973.922913	3151.596191	1042.188477	3.134794
296.134552	1014.882263	3062.851074	1046.739624	1.555559
296.507996	1001.229126	3172.075928	1051.290649	2.306083
296.881378	1010.331238	3178.902588	1010.331238	0.000000
297.254730	1010.331238	3383.699463	1021.708862	0.479387
297.628021	962.545288	3545.261475	962.545288	0.000000
298.001282	937.514587	3684.068115	1051.290649	4.142503
298.374573	1046.739624	3579.394287	1028.535400	-0.718780
298.747803	1037.637451	3458.791504	1058.117188	0.845867
299.121002	1060.392700	3401.903564	1101.352051	1.749270
299.494141	973.922913	3185.729004	1053.566162	3.600824
299.867188	1010.331238	3074.228516	1078.596802	3.307605
300.240265	983.024963	3281.301025	1067.219238	3.663366
300.613312	1005.780212	3076.504150	1099.076538	4.505493
300.986328	985.300537	2990.034424	1083.147949	4.880818
301.359314	1023.984375	2889.911377	1033.086426	0.487803
301.732239	1026.259888	2965.003662	1012.606750	-0.704226
302.105103	1039.912964	2999.136475	1092.250000	2.671315
302.477997	1026.259888	2896.738037	1023.984375	-0.121654
302.850830	1053.566162	3021.891602	1023.984375	-1.502891
303.223602	1017.157776	2801.166016	1033.086426	0.892857
303.596375	994.402588	2917.217773	1051.290649	2.958582
303.969116	1005.780212	2710.145264	1055.841675	2.937250
304.341766	978.473938	2805.717041	1083.147949	5.728521
304.714478	998.953613	2839.849854	1005.780212	0.370830
305.087067	1039.912964	2748.829102	1165.066650	7.323571
305.459656	1010.331238	2848.952148	1103.627563	5.074256
305.832214	1021.708862	2710.145264	1124.107300	6.064690
306.204681	1058.117188	2794.339600	1067.219238	0.524244
306.577148	980.749451	2723.798340	1096.801025	6.657965
306.949646	1003.504700	2864.880615	1146.862427	7.701707
307.322021	1021.708862	2812.543701	1158.240112	7.623888
307.694397	978.473938	2801.166016	1231.056763	13.857679
308.066742	1010.331238	2830.747803	1194.648438	10.125002
308.439026	948.892151	2903.564453	1256.087524	15.715952
308.811279	1067.219238	3015.064941	1242.434326	8.995327
309.183502	967.096313	3033.269287	1392.618774	20.594717
309.555695	985.300537	3065.126465	1278.842651	14.113783
309.927887	962.545288	3081.055176	1388.067749	20.085934
310.299988	1012.606750	3078.779541	1433.578125	20.374451
310.672058	1080.872437	3231.239502	1358.485962	12.910052
311.044128	1094.525513	3224.413086	1408.547363	14.743587
311.416168	1087.698975	3265.372314	1408.547363	14.733541
311.788147	951.167725	3106.085938	1451.782227	23.231253
312.160065	992.127075	3215.310791	1401.720825	18.423748
312.531982	1042.188477	3206.208740	1483.639526	20.399580
312.903870	1019.433350	3147.045166	1472.261963	21.283422
313.275696	1037.637451	3062.851074	1481.364014	21.910112
313.647491	1060.392700	3035.544678	1508.670288	22.695852
314.019318	1051.290649	3092.432861	1458.608887	19.955406
314.391022	946.616638	2969.554688	1429.027100	23.847021
314.762726	967.096313	3181.177979	1458.608887	22.199389
315.134369	1030.810913	3231.239502	1454.057739	19.234743
315.505981	980.749451	3304.056152	1392.618774	17.727720
315.877594	1046.739624	3358.668701	1611.068726	24.409445
316.249146	1019.433350	3242.617188	1549.629639	23.848513
316.620636	1014.882263	3071.953125	1479.088501	22.566372
316.992157	1019.433350	3135.667725	1481.364014	21.827953
317.363586	1028.535400	2955.901611	1474.537476	23.140495
317.735016	1049.015137	2792.063965	1413.098389	20.887726
318.106354	1028.535400	2958.177002	1417.649414	20.165092
318.477722	1051.290649	2951.350586	1410.822876	18.922152
318.849060	1008.055725	2996.860840	1419.924927	20.709379
319.220306	1026.259888	2978.656738	1349.383789	16.550114
319.591522	976.198425	3110.636963	1463.159912	22.814501
