Jaz Data File
++++++++++++++++++++++++++++++++++++
Date: Wed Feb 07 06:51:26 2024
User: jaz
Dark Spectrum Present: Yes
Reference Spectrum Present: Yes
Processed Spectrum Present: Yes
Spectrometers: JAZA3692
Integration Time (usec): 42900 (JAZA3692)
Spectra Averaged: 1 (JAZA3692)
Boxcar Smoothing: 0 (JAZA3692)
Correct for Electrical Dark: No (JAZA3692)
Strobe/Lamp Enabled: Yes (JAZA3692)
Correct for Detector Non-linearity: No (JAZA3692)
Correct for Stray Light: No (JAZA3692)
Number of Pixels in Processed Spectrum: 2048
>>>>>Begin Processed Spectral Data<<<<<
W	D	R	S	P
190.244385	0.000000	0.000000	0.000000	0.000000
190.627136	0.000000	0.000000	0.000000	0.000000
191.009842	907.932800	948.892151	896.555176	-27.777843
191.392532	985.300537	1028.535400	910.208313	-173.684433
191.775177	917.034912	967.096313	923.861450	13.636331
192.157791	989.851563	903.381775	948.892151	47.368465
192.540390	992.127075	917.034912	971.647400	27.272720
192.922943	905.657288	1001.229126	955.718750	52.380978
193.305481	1003.504700	1035.361938	978.473938	-78.571663
193.687958	1010.331238	1023.984375	1001.229126	-66.666817
194.070419	948.892151	1019.433350	953.443237	6.451672
194.452866	1064.943726	928.412476	973.922913	66.666649
194.835251	1030.810913	1012.606750	980.749451	275.000092
195.217621	1008.055725	976.198425	896.555176	350.000000
195.599960	1039.912964	1003.504700	1003.504700	100.000000
195.982254	1080.872437	976.198425	987.576050	89.130424
196.364517	1033.086426	971.647400	951.167725	133.333328
196.746750	962.545288	1003.504700	989.851563	66.666664
197.128952	1014.882263	994.402588	921.585938	455.555695
197.511139	1067.219238	1001.229126	1012.606750	82.758591
197.893280	992.127075	1010.331238	983.024963	-50.000168
198.275391	998.953613	935.239075	992.127075	10.714255
198.657471	1001.229126	1003.504700	1003.504700	100.000000
199.039520	1049.015137	967.096313	1017.157776	38.888939
199.421539	948.892151	1037.637451	1023.984375	84.615440
199.803513	967.096313	973.922913	932.963501	-499.997314
200.185471	1001.229126	948.892151	973.922913	52.173847
200.567383	1010.331238	1010.331238	926.136963	0.000000
200.949265	989.851563	989.851563	1058.117188	0.000000
201.331131	930.687988	1044.463989	964.820801	30.000011
201.712967	946.616638	1037.637451	964.820801	20.000000
202.094742	976.198425	1030.810913	935.239075	-74.999969
202.476517	980.749451	1026.259888	960.269775	-44.999954
202.858231	957.994263	1055.841675	978.473938	20.930216
203.239944	969.371887	994.402588	962.545288	-27.272905
203.621582	955.718750	935.239075	955.718750	-0.000000
204.003235	937.514587	969.371887	1039.912964	321.428284
204.384827	935.239075	1019.433350	983.024963	56.756695
204.766388	937.514587	1017.157776	1078.596802	177.142853
205.147934	985.300537	1039.912964	1035.361938	91.666687
205.529449	1021.708862	953.443237	983.024963	56.666733
205.910904	976.198425	1044.463989	973.922913	-3.333324
206.292343	948.892151	1019.433350	987.576050	54.838734
206.673767	930.687988	992.127075	1012.606750	133.333298
207.055115	998.953613	980.749451	960.269775	212.499954
207.436462	1010.331238	1012.606750	951.167725	-2600.008057
207.817780	1014.882263	1069.494751	1010.331238	-8.333305
208.199051	967.096313	976.198425	1008.055725	449.998993
208.580307	994.402588	983.024963	967.096313	239.999786
208.961517	928.412476	971.647400	939.790100	26.315819
209.342712	983.024963	987.576050	992.127075	199.998657
209.723846	976.198425	989.851563	937.514587	-283.332947
210.104965	1096.801025	1069.494751	928.412476	616.666138
210.486069	955.718750	1074.045776	937.514587	-15.384620
210.867111	985.300537	1044.463989	989.851563	7.692292
211.248123	962.545288	1046.739624	955.718750	-8.108073
211.629120	962.545288	998.953613	980.749451	50.000000
212.010071	994.402588	1044.463989	930.687988	-127.272903
212.390991	951.167725	1026.259888	987.576050	48.484852
212.771881	983.024963	923.861450	1010.331238	-46.153908
213.152756	962.545288	992.127075	923.861450	-130.769104
213.533569	962.545288	944.341125	967.096313	-24.999916
213.914368	930.687988	960.269775	1005.780212	253.846130
214.295135	989.851563	985.300537	937.514587	1150.004028
214.675858	989.851563	928.412476	985.300537	7.407378
215.056549	978.473938	992.127075	1019.433350	300.000000
215.437225	1019.433350	978.473938	960.269775	144.444397
215.817841	978.473938	1071.770264	946.616638	-34.146362
216.198441	1010.331238	985.300537	955.718750	218.182022
216.579025	928.412476	1028.535400	892.004150	-36.363625
216.959549	1053.566162	1017.157776	912.483826	387.499573
217.340057	973.922913	1012.606750	946.616638	-70.588326
217.720535	1003.504700	1008.055725	885.177612	-2600.009277
218.100967	1003.504700	1001.229126	926.136963	3399.922119
218.481369	994.402588	987.576050	1008.055725	-200.000900
218.861740	1003.504700	1067.219238	1026.259888	35.714279
219.242065	955.718750	978.473938	1069.494751	500.000275
219.622391	969.371887	1019.433350	985.300537	31.818188
220.002670	994.402588	1012.606750	912.483826	-450.000153
220.382919	976.198425	962.545288	1021.708862	-333.333191
220.763123	932.963501	996.678101	996.678101	100.000000
221.143295	937.514587	1014.882263	1005.780212	88.235329
221.523453	992.127075	1005.780212	1001.229126	66.666367
221.903549	957.994263	1003.504700	894.279663	-139.999969
222.283630	1046.739624	1023.984375	998.953613	209.999939
222.663696	976.198425	1035.361938	969.371887	-11.538425
223.043701	923.861450	978.473938	998.953613	137.499985
223.423676	978.473938	1033.086426	994.402588	29.166681
223.803635	967.096313	1012.606750	960.269775	-14.999940
224.183548	928.412476	996.678101	973.922913	66.666695
224.563431	962.545288	1014.882263	928.412476	-65.217400
224.943283	946.616638	1008.055725	946.616638	0.000000
225.323105	937.514587	1058.117188	960.269775	18.867908
225.702881	1008.055725	1033.086426	964.820801	-172.727585
226.082642	919.310425	1026.259888	976.198425	53.191479
226.462357	1017.157776	1035.361938	914.759338	-562.500122
226.842041	998.953613	967.096313	996.678101	7.142830
227.221695	926.136963	1019.433350	953.443237	29.268309
227.601318	937.514587	1021.708862	960.269775	27.027002
227.980911	989.851563	996.678101	910.208313	-1166.671143
228.360474	976.198425	1021.708862	942.065613	-74.999969
228.739990	1028.535400	1135.484863	1017.157776	-10.638318
229.119476	971.647400	1124.107300	926.136963	-29.850760
229.498932	1005.780212	1130.933838	1014.882263	7.272702
229.878372	996.678101	1187.821899	980.749451	-8.333333
230.257736	1008.055725	1212.852539	1026.259888	8.888889
230.637115	980.749451	1203.750488	942.065613	-17.346931
231.016449	992.127075	1128.658325	985.300537	-4.999982
231.395737	903.381775	1121.831787	901.106262	-1.041663
231.774994	937.514587	1014.882263	1008.055725	91.176498
232.154221	964.820801	1146.862427	964.820801	0.000000
232.533417	937.514587	1146.862427	921.585938	-7.608700
232.912582	917.034912	1167.342163	980.749451	25.454533
233.291702	928.412476	1115.005249	1046.739624	63.414646
233.670792	996.678101	1119.556274	1017.157776	16.666651
234.049866	907.932800	1133.209351	1071.770264	72.727257
234.428894	957.994263	1176.444214	962.545288	2.083326
234.807892	973.922913	1183.270874	1042.188477	32.608658
235.186874	985.300537	1133.209351	1076.321289	61.538422
235.565781	967.096313	1212.852539	1001.229126	13.888890
235.944687	1028.535400	1185.546387	1062.668213	21.739124
236.323547	948.892151	1256.087524	1058.117188	35.555561
236.702377	926.136963	1201.474976	978.473938	19.008263
237.081177	980.749451	1174.168701	912.483826	-35.294121
237.459946	980.749451	1190.097412	930.687988	-23.913040
237.838669	942.065613	1165.066650	930.687988	-5.102050
238.217361	928.412476	1256.087524	1010.331238	25.000000
238.596039	994.402588	1208.301514	1005.780212	5.319159
238.974670	942.065613	1208.301514	1005.780212	23.931633
239.353271	957.994263	1224.230225	1008.055725	18.803419
239.731842	980.749451	1240.158813	978.473938	-0.877190
240.110367	919.310425	1158.240112	944.341125	10.476178
240.488876	928.412476	1237.883301	1003.504700	24.264719
240.867340	964.820801	1253.812012	1055.841675	31.496071
241.245789	1019.433350	1258.363037	976.198425	-18.095249
241.624176	969.371887	1228.781250	1012.606750	16.666655
242.002548	957.994263	1467.710938	996.678101	7.589283
242.380890	1023.984375	1495.017212	983.024963	-8.695660
242.759186	1019.433350	1533.701050	1058.117188	7.522121
243.137451	932.963501	1592.864502	1026.259888	14.137937
243.515686	971.647400	1658.854614	1030.810913	8.609268
243.893890	964.820801	1658.854614	951.167725	-1.967206
244.272049	967.096313	1517.772339	976.198425	1.652898
244.650192	889.728638	1606.517700	1010.331238	16.825396
245.028290	905.657288	1506.394775	960.269775	9.090907
245.406357	960.269775	1492.741699	939.790100	-3.846151
245.784393	955.718750	1447.231201	1010.331238	11.111110
246.162384	907.932800	1501.843750	937.514587	4.980845
246.540359	948.892151	1592.864502	955.718750	1.060076
246.918289	955.718750	1615.619751	996.678101	6.206893
247.296204	989.851563	1756.702026	935.239075	-7.121661
247.674057	973.922913	2066.172852	955.718750	-1.666666
248.051895	976.198425	2243.663574	985.300537	0.718135
248.429703	948.892151	2352.888428	962.545288	0.972448
248.807465	1010.331238	2336.959961	978.473938	-2.401373
249.185196	1019.433350	2095.754639	1005.780212	-1.268500
249.562897	964.820801	1893.233276	917.034912	-5.147054
249.940567	1001.229126	1840.896362	967.096313	-4.065041
250.318192	1021.708862	1779.457275	967.096313	-7.207214
250.695801	994.402588	1649.752563	1023.984375	4.513892
251.073349	980.749451	1579.211426	1021.708862	6.844112
251.450882	955.718750	1501.843750	1042.188477	15.833322
251.828400	1053.566162	1524.598877	996.678101	-12.077306
252.205872	987.576050	1565.558350	978.473938	-1.574808
252.583313	926.136963	1636.099487	903.381775	-3.205125
252.960693	980.749451	1722.569214	944.341125	-4.907975
253.338074	955.718750	1913.713013	978.473938	2.375295
253.715408	1019.433350	1845.447388	955.718750	-7.713501
254.092682	923.861450	1665.681274	935.239075	1.533745
254.469955	989.851563	1654.303589	973.922913	-2.397261
254.847198	937.514587	1574.660400	1001.229126	9.999993
255.224365	1017.157776	1508.670288	983.024963	-6.944444
255.601563	910.208313	1506.394775	939.790100	4.961835
255.978683	973.922913	1547.354126	980.749451	1.190472
256.355743	976.198425	1499.568237	1019.433350	8.260875
256.732819	930.687988	1570.109375	989.851563	9.252674
257.109894	944.341125	1549.629639	989.851563	7.518801
257.486877	1005.780212	1576.935913	992.127075	-2.390440
257.863831	1028.535400	1683.885376	1026.259888	-0.347221
258.240753	1008.055725	1672.507813	998.953613	-1.369867
258.617645	1017.157776	1692.987427	985.300537	-4.713797
258.994507	1003.504700	1799.937012	1005.780212	0.285713
259.371307	980.749451	1836.345337	1049.015137	7.978730
259.748108	985.300537	2125.336426	1026.259888	3.592812
260.124878	998.953613	2314.204590	948.892151	-3.806229
260.501617	898.830688	2500.797363	955.718750	3.551139
260.878296	919.310425	2803.441650	1005.780212	4.589372
261.254944	951.167725	2889.911377	962.545288	0.586852
261.631561	989.851563	2864.880615	953.443237	-1.941747
262.008179	946.616638	2521.277100	998.953613	3.323699
262.384735	960.269775	2168.571289	912.483826	-3.954803
262.761261	973.922913	2018.386963	976.198425	0.217864
263.137695	926.136963	2027.489014	992.127075	5.991736
263.514191	928.412476	1934.192627	1005.780212	7.692311
263.890594	996.678101	1970.601074	1019.433350	2.336453
264.267029	944.341125	1909.161987	1071.770264	13.207543
264.643341	978.473938	1875.029175	971.647400	-0.761419
265.019653	942.065613	1845.447388	939.790100	-0.251888
265.395935	992.127075	1831.794189	1071.770264	9.485091
265.772217	1017.157776	1863.651489	1035.361938	2.150537
266.148407	953.443237	1829.518677	967.096313	1.558436
266.524597	992.127075	1970.601074	1021.708862	3.023257
266.900726	926.136963	2029.764526	998.953613	6.597937
267.276855	967.096313	2004.733887	967.096313	0.000000
267.652924	967.096313	2241.387939	971.647400	0.357146
268.028992	953.443237	2168.571289	1019.433350	5.430713
268.404999	955.718750	2118.509766	1012.606750	4.892367
268.781006	894.279663	2111.683350	1042.188477	12.149529
269.156921	980.749451	2125.336426	996.678101	1.391651
269.532837	973.922913	2170.846924	994.402588	1.711025
269.908661	953.443237	2086.652588	976.198425	2.008030
270.284546	892.004150	2143.540527	1010.331238	9.454546
270.660339	1023.984375	2148.091553	1014.882263	-0.809719
271.036133	937.514587	2141.265137	1060.392700	10.207939
271.411835	944.341125	2364.266113	1060.392700	8.173078
271.787537	969.371887	2448.460449	964.820801	-0.307695
272.163239	967.096313	2616.848877	917.034912	-3.034479
272.538849	1035.361938	2780.686523	1046.739624	0.651895
272.914459	987.576050	2812.543701	1001.229126	0.748127
273.290070	980.749451	2632.777588	962.545288	-1.101928
273.665588	944.341125	2491.695313	1078.596802	8.676467
274.041046	996.678101	2537.205811	1035.361938	2.511077
274.416565	1010.331238	2441.633789	1001.229126	-0.635932
274.791962	1005.780212	2389.296875	971.647400	-2.467105
275.167389	971.647400	2316.480225	987.576050	1.184433
275.542755	983.024963	2402.949951	985.300537	0.160260
275.918060	989.851563	2245.938965	1010.331238	1.630434
276.293365	1005.780212	2336.959961	967.096313	-2.905986
276.668640	976.198425	2475.766602	1003.504700	1.820943
277.043854	1023.984375	2489.419678	960.269775	-4.347827
277.419037	937.514587	2514.450439	1023.984375	5.483406
277.794189	964.820801	2439.358398	1049.015137	5.709880
278.169312	971.647400	2491.695313	1046.739624	4.940123
278.544373	976.198425	2514.450439	1010.331238	2.218935
278.919464	930.687988	2509.899414	962.545288	2.017292
279.294464	935.239075	2330.133301	942.065613	0.489395
279.669464	985.300537	2459.837891	1051.290649	4.475310
280.044403	1012.606750	2380.194824	1060.392700	3.494177
280.419312	944.341125	2437.082764	989.851563	3.048782
280.794189	1019.433350	2430.256104	1046.739624	1.935486
281.169037	1037.637451	2559.960938	1026.259888	-0.747381
281.543854	998.953613	2553.134277	1017.157776	1.171303
281.918671	980.749451	2589.542725	985.300537	0.282888
282.293365	987.576050	2869.431641	971.647400	-0.846433
282.668091	926.136963	2878.533936	1044.463989	6.060603
283.042786	978.473938	3003.687500	992.127075	0.674158
283.417419	967.096313	3005.962891	1028.535400	3.013394
283.792053	980.749451	2889.911377	1046.739624	3.456500
284.166595	973.922913	2937.697266	1010.331238	1.853997
284.541138	960.269775	2785.237549	1028.535400	3.740648
284.915619	998.953613	2939.972900	1021.708862	1.172335
285.290100	1055.841675	2921.768799	1017.157776	-2.073173
285.664520	996.678101	2894.462402	1005.780212	0.479618
286.038940	930.687988	2935.421875	976.198425	2.270149
286.413300	987.576050	3140.218750	1001.229126	0.634247
286.787628	896.555176	3165.249512	987.576050	4.012038
287.161896	955.718750	3219.861816	1021.708862	2.914573
287.536194	1001.229126	3304.056152	1003.504700	0.098817
287.910400	987.576050	3137.943115	1037.637451	2.328040
288.284607	937.514587	3074.228516	1014.882263	3.620872
288.658752	955.718750	2935.421875	1021.708862	3.333334
289.032867	971.647400	2814.819336	1085.423462	6.172841
289.406921	1005.780212	2851.227539	1023.984375	0.986436
289.781006	912.483826	2853.503174	1026.259888	5.861666
290.154999	1008.055725	2878.533936	983.024963	-1.338201
290.529022	1003.504700	3169.800537	1037.637451	1.575627
290.902954	910.208313	3112.912354	1001.229126	4.132231
291.276825	1026.259888	3253.994629	967.096313	-2.655773
291.650757	985.300537	3331.362549	894.279663	-3.879730
292.024597	960.269775	3297.229736	964.820801	0.194741
292.398407	962.545288	3265.372314	1021.708862	2.569171
292.772156	969.371887	3119.739014	1005.780212	1.693121
293.145905	978.473938	3115.187988	1001.229126	1.064962
293.519592	989.851563	2969.554688	1005.780212	0.804598
293.893280	1037.637451	3053.749023	1021.708862	-0.790065
294.266907	917.034912	3110.636963	1039.912964	5.601656
294.640533	980.749451	3294.954102	944.341125	-1.573254
295.014069	978.473938	3249.443604	1023.984375	2.004009
295.387604	1001.229126	3547.536865	1033.086426	1.251117
295.761078	1019.433350	3588.496338	1010.331238	-0.354297
296.134552	967.096313	3465.618164	989.851563	0.910748
296.507996	967.096313	3547.536865	1053.566162	3.350972
296.881378	923.861450	3549.812500	1062.668213	5.285961
297.254730	939.790100	3729.578613	1035.361938	3.425774
297.628021	1028.535400	3988.988037	1055.841675	0.922368
298.001282	953.443237	4034.498291	1014.882263	1.994090
298.374573	1019.433350	4091.386475	992.127075	-0.888890
298.747803	1001.229126	3909.344727	1008.055725	0.234743
299.121002	998.953613	3747.782715	1042.188477	1.572847
299.494141	885.177612	3602.149414	1005.780212	4.438861
299.867188	1001.229126	3565.741211	992.127075	-0.354923
300.240265	1001.229126	3388.250488	1051.290649	2.097238
300.613312	969.371887	3367.770752	1026.259888	2.371916
300.986328	1026.259888	3345.015625	978.473938	-2.060844
301.359314	987.576050	3203.933350	1044.463989	2.566731
301.732239	951.167725	3140.218750	1092.250000	6.444906
302.105103	921.585938	3265.372314	983.024963	2.621358
302.477997	953.443237	3188.004639	1003.504700	2.240326
302.850830	1003.504700	3367.770752	1035.361938	1.347447
303.223602	1008.055725	3135.667725	1080.872437	3.422462
303.596375	1051.290649	3208.484375	1023.984375	-1.265824
303.969116	973.922913	3071.953125	1008.055725	1.626898
304.341766	987.576050	3076.504150	1012.606750	1.198256
304.714478	980.749451	3156.147461	998.953613	0.836820
305.087067	944.341125	3162.973877	1069.494751	5.641025
305.459656	989.851563	3144.769775	1096.801025	4.963040
305.832214	1003.504700	3172.075928	1076.321289	3.357814
306.204681	971.647400	3040.095703	1062.668213	4.400439
306.577148	907.932800	3056.024414	1117.280762	9.745766
306.949646	998.953613	3140.218750	1180.995239	8.501592
307.322021	921.585938	3167.524902	1208.301514	12.765956
307.694397	935.239075	3126.565674	1199.199463	12.045689
308.066742	1019.433350	3053.749023	1224.230225	10.067114
308.439026	980.749451	3324.535889	1251.536499	11.553401
308.811279	1001.229126	3217.586426	1281.118164	12.628335
309.183502	998.953613	3417.832275	1281.118164	11.665097
309.555695	946.616638	3481.546875	1374.414551	16.876122
309.927887	951.167725	3415.556641	1408.547363	18.559555
310.299988	1023.984375	3556.638916	1424.476074	15.813120
310.672058	942.065613	3499.750977	1390.343262	17.526693
311.044128	946.616638	3558.914551	1376.690063	16.463415
311.416168	914.759338	3654.486328	1499.568237	21.345516
311.788147	942.065613	3636.282227	1540.527588	22.212839
312.160065	967.096313	3615.802490	1469.986450	18.986258
312.531982	944.341125	3549.812500	1410.822876	17.903929
312.903870	992.127075	3433.760986	1485.915039	20.223671
313.275696	948.892151	3417.832275	1401.720825	18.341015
313.647491	1014.882263	3319.984863	1506.394775	21.322805
314.019318	1001.229126	3404.179199	1481.364014	19.981058
314.391022	1017.157776	3415.556641	1454.057739	18.216318
314.762726	1003.504700	3445.138428	1485.915039	19.757687
315.134369	989.851563	3563.465576	1513.221313	20.335985
315.505981	937.514587	3699.996826	1538.252075	21.746294
315.877594	976.198425	3759.160400	1583.762451	21.831560
316.249146	1049.015137	3593.047363	1611.068726	22.093021
316.620636	928.412476	3467.893799	1490.466064	22.132612
316.992157	973.922913	3276.750000	1417.649414	19.268772
317.363586	896.555176	3290.403076	1424.476074	22.053234
317.735016	985.300537	3256.270264	1467.710938	21.242485
318.106354	960.269775	3304.056152	1524.598877	24.077667
318.477722	1026.259888	3347.291016	1472.261963	19.215687
318.849060	919.310425	3253.994629	1444.955688	22.514620
319.220306	910.208313	3244.892578	1444.955688	22.904484
319.591522	1014.882263	3442.863037	1520.047852	20.805996
319.962738	985.300537	3454.240479	1551.905151	22.949306
320.333923	944.341125	3304.056152	1426.751587	20.443590
320.705017	1042.188477	3310.882813	1440.404663	17.552660
321.076111	998.953613	3329.086914	1479.088501	20.605469
321.447144	978.473938	3283.576416	1460.884399	20.927938
321.818176	914.759338	3222.137451	1479.088501	24.457594
