Jaz Data File
++++++++++++++++++++++++++++++++++++
Date: Wed Feb 07 06:55:24 2024
User: jaz
Dark Spectrum Present: Yes
Reference Spectrum Present: Yes
Processed Spectrum Present: Yes
Spectrometers: JAZA3692
Integration Time (usec): 43800 (JAZA3692)
Spectra Averaged: 1 (JAZA3692)
Boxcar Smoothing: 0 (JAZA3692)
Correct for Electrical Dark: No (JAZA3692)
Strobe/Lamp Enabled: Yes (JAZA3692)
Correct for Detector Non-linearity: No (JAZA3692)
Correct for Stray Light: No (JAZA3692)
Number of Pixels in Processed Spectrum: 2048
>>>>>Begin Processed Spectral Data<<<<<
W	D	R	S	P
190.244385	0.000000	0.000000	0.000000	0.000000
190.627136	0.000000	0.000000	0.000000	0.000000
191.009842	892.004150	873.799988	912.483826	-112.499962
191.392532	855.595825	892.004150	862.422363	18.749937
191.775177	960.269775	844.218201	907.932800	45.098030
192.157791	967.096313	969.371887	880.626526	-3799.911377
192.540390	892.004150	894.279663	964.820801	3200.010742
192.922943	939.790100	935.239075	946.616638	-150.000000
193.305481	980.749451	928.412476	880.626526	191.304382
193.687958	917.034912	937.514587	917.034912	0.000000
194.070419	967.096313	905.657288	932.963501	55.555588
194.452866	948.892151	935.239075	907.932800	300.000885
194.835251	932.963501	985.300537	896.555176	-69.565125
195.217621	917.034912	907.932800	907.932800	100.000000
195.599960	962.545288	939.790100	839.667175	540.000427
195.982254	932.963501	944.341125	857.871338	-659.998596
196.364517	973.922913	955.718750	907.932800	362.500122
196.746750	967.096313	976.198425	912.483826	-599.997986
197.128952	967.096313	892.004150	873.799988	124.242424
197.511139	864.697876	919.310425	939.790100	137.499939
197.893280	962.545288	889.728638	912.483826	68.750023
198.275391	953.443237	907.932800	948.892151	10.000093
198.657471	903.381775	937.514587	896.555176	-20.000107
199.039520	948.892151	935.239075	937.514587	83.333336
199.421539	917.034912	998.953613	873.799988	-52.777843
199.803513	951.167725	973.922913	907.932800	-190.000290
200.185471	953.443237	983.024963	903.381775	-169.231033
200.567383	967.096313	985.300537	939.790100	-149.999329
200.949265	951.167725	1010.331238	917.034912	-57.692337
201.331131	898.830688	964.820801	907.932800	13.793145
201.712967	923.861450	898.830688	878.351013	181.818024
202.094742	903.381775	942.065613	832.840637	-182.352997
202.476517	944.341125	887.453125	919.310425	43.999966
202.858231	976.198425	973.922913	948.892151	1200.005371
203.239944	1044.463989	903.381775	816.911987	161.290359
203.621582	937.514587	1030.810913	896.555176	-43.902493
204.003235	953.443237	955.718750	864.697876	-3900.016113
204.384827	951.167725	932.963501	871.524475	437.498749
204.766388	969.371887	903.381775	919.310425	75.862068
205.147934	873.799988	901.106262	1017.157776	524.999451
205.529449	923.861450	910.208313	960.269775	-266.666382
205.910904	910.208313	955.718750	907.932800	-4.999980
206.292343	903.381775	978.473938	914.759338	15.151465
206.673767	885.177612	907.932800	914.759338	129.999924
207.055115	871.524475	985.300537	871.524475	0.000000
207.436462	948.892151	896.555176	953.443237	-8.695739
207.817780	955.718750	917.034912	1035.361938	-205.882339
208.199051	853.320313	910.208313	901.106262	84.000053
208.580307	832.840637	976.198425	919.310425	60.317467
208.961517	903.381775	957.994263	896.555176	-12.500070
209.342712	905.657288	905.657288	903.381775	0.000000
209.723846	955.718750	969.371887	832.840637	-899.999084
210.104965	969.371887	957.994263	876.075500	819.998840
210.486069	914.759338	946.616638	885.177612	-92.856979
210.867111	912.483826	962.545288	912.483826	0.000000
211.248123	905.657288	885.177612	971.647400	-322.222443
211.629120	926.136963	917.034912	912.483826	150.000671
212.010071	873.799988	971.647400	880.626526	6.976718
212.390991	857.871338	946.616638	846.493713	-12.820538
212.771881	946.616638	937.514587	812.360901	1475.005371
213.152756	876.075500	973.922913	885.177612	9.302353
213.533569	864.697876	930.687988	846.493713	-27.586197
213.914368	876.075500	951.167725	905.657288	39.393940
214.295135	903.381775	896.555176	880.626526	333.332153
214.675858	923.861450	967.096313	878.351013	-105.263283
215.056549	866.973450	901.106262	914.759338	139.999863
215.437225	832.840637	907.932800	932.963501	133.333313
215.817841	910.208313	932.963501	905.657288	-19.999947
216.198441	973.922913	855.595825	857.871338	98.076927
216.579025	880.626526	932.963501	860.146851	-39.130413
216.959549	942.065613	878.351013	864.697876	121.428589
217.340057	932.963501	1003.504700	832.840637	-141.935303
217.720535	889.728638	860.146851	862.422363	92.307724
218.100967	953.443237	923.861450	878.351013	253.846130
218.481369	939.790100	948.892151	912.483826	-300.001343
218.861740	910.208313	939.790100	864.697876	-153.846130
219.242065	912.483826	944.341125	948.892151	114.285660
219.622391	869.248962	935.239075	882.902100	20.689671
220.002670	896.555176	896.555176	928.412476	0.000000
220.382919	926.136963	928.412476	903.381775	-1000.002686
220.763123	944.341125	937.514587	905.657288	566.668457
221.143295	873.799988	973.922913	967.096313	93.181786
221.523453	921.585938	928.412476	885.177612	-533.335144
221.903549	848.769287	942.065613	878.351013	31.707279
222.283630	892.004150	926.136963	964.820801	213.333282
222.663696	932.963501	1001.229126	955.718750	33.333393
223.043701	980.749451	939.790100	973.922913	16.666616
223.423676	862.422363	930.687988	951.167725	130.000076
223.803635	944.341125	946.616638	955.718750	500.002686
224.183548	980.749451	955.718750	880.626526	400.000488
224.563431	935.239075	1012.606750	935.239075	0.000000
224.943283	946.616638	987.576050	914.759338	-77.777725
225.323105	951.167725	960.269775	912.483826	-425.002014
225.702881	901.106262	898.830688	848.769287	2299.946289
226.082642	853.320313	903.381775	885.177612	63.636375
226.462357	905.657288	1046.739624	876.075500	-20.967747
226.842041	907.932800	1055.841675	910.208313	1.538456
227.221695	857.871338	980.749451	928.412476	57.407406
227.601318	935.239075	978.473938	864.697876	-163.158142
227.980911	921.585938	1028.535400	914.759338	-6.383014
228.360474	917.034912	939.790100	876.075500	-180.000320
228.739990	905.657288	957.994263	905.657288	0.000000
229.119476	946.616638	1042.188477	887.453125	-61.904755
229.498932	971.647400	1119.556274	907.932800	-43.076927
229.878372	871.524475	1171.893188	876.075500	1.515146
230.257736	928.412476	1171.893188	864.697876	-26.168232
230.637115	855.595825	1112.729614	905.657288	19.469032
231.016449	946.616638	1158.240112	919.310425	-12.903206
231.395737	853.320313	1115.005249	860.146851	2.608686
231.774994	912.483826	1083.147949	876.075500	-21.333321
232.154221	921.585938	1183.270874	928.412476	2.608686
232.533417	894.279663	1051.290649	892.004150	-1.449270
232.912582	926.136963	1037.637451	930.687988	4.081619
233.291702	821.463013	1030.810913	896.555176	35.869556
233.670792	910.208313	1049.015137	926.136963	11.475409
234.049866	926.136963	1058.117188	914.759338	-8.620704
234.428894	853.320313	1074.045776	860.146851	3.092773
234.807892	932.963501	1089.974487	880.626526	-33.333321
235.186874	880.626526	1135.484863	851.044800	-11.607125
235.565781	989.851563	1046.739624	921.585938	-119.999916
235.944687	957.994263	1103.627563	1003.504700	31.250021
236.323547	917.034912	1105.903076	896.555176	-10.843403
236.702377	960.269775	1039.912964	907.932800	-65.714317
237.081177	873.799988	1101.352051	928.412476	23.999996
237.459946	869.248962	1178.719727	930.687988	19.852934
237.838669	969.371887	1149.138062	926.136963	-24.050646
238.217361	955.718750	1140.035889	980.749451	13.580235
238.596039	953.443237	1083.147949	921.585938	-24.561405
238.974670	937.514587	1133.209351	946.616638	4.651147
239.353271	901.106262	1126.382813	921.585938	9.090904
239.731842	930.687988	1169.617676	905.657288	-10.476178
240.110367	901.106262	1158.240112	841.942688	-23.008863
240.488876	871.524475	1167.342163	835.116150	-12.307691
240.867340	896.555176	1235.607788	962.545288	19.463089
241.245789	894.279663	1119.556274	912.483826	8.080805
241.624176	910.208313	1233.332275	964.820801	16.901405
242.002548	955.718750	1319.802124	907.932800	-13.125002
242.380890	882.902100	1308.424438	942.065613	13.903738
242.759186	907.932800	1454.057739	889.728638	-3.333333
243.137451	894.279663	1481.364014	921.585938	4.651167
243.515686	917.034912	1556.456177	926.136963	1.423483
243.893890	885.177612	1658.854614	882.902100	-0.294117
244.272049	948.892151	1479.088501	887.453125	-11.587976
244.650192	926.136963	1567.833862	882.902100	-6.737583
245.028290	844.218201	1415.373901	853.320313	1.593631
245.406357	901.106262	1369.863525	814.636475	-18.446602
245.784393	907.932800	1372.139038	917.034912	1.960791
246.162384	928.412476	1365.312500	923.861450	-1.041663
246.540359	919.310425	1454.057739	944.341125	4.680846
246.918289	901.106262	1636.099487	864.697876	-4.953568
247.296204	894.279663	1656.579102	955.718750	8.059705
247.674057	926.136963	1952.396851	876.075500	-4.878049
248.051895	844.218201	2207.255127	921.585938	5.676129
248.429703	914.759338	2129.887451	832.840637	-6.741569
248.807465	942.065613	2079.825928	905.657288	-3.200000
249.185196	835.116150	2002.458252	907.932800	6.237816
249.562897	917.034912	1781.732788	914.759338	-0.263164
249.940567	921.585938	1695.262939	951.167725	3.823532
250.318192	919.310425	1595.140137	892.004150	-4.040408
250.695801	901.106262	1567.833862	914.759338	2.047774
251.073349	885.177612	1522.323364	942.065613	8.928570
251.450882	937.514587	1495.017212	917.034912	-3.673467
251.828400	937.514587	1469.986450	957.994263	3.846152
252.205872	935.239075	1510.945801	937.514587	0.395256
252.583313	907.932800	1599.691162	967.096313	8.552628
252.960693	896.555176	1590.588989	983.024963	12.459017
253.338074	812.360901	1604.242188	889.728638	9.770118
253.715408	848.769287	1677.058838	1010.331238	19.505491
254.092682	944.341125	1615.619751	946.616638	0.338982
254.469955	903.381775	1504.119263	951.167725	7.954548
254.847198	848.769287	1456.333252	912.483826	10.486886
255.224365	887.453125	1449.506714	830.565063	-10.121466
255.601563	869.248962	1415.373901	944.341125	13.749997
255.978683	960.269775	1424.476074	901.106262	-12.745090
256.355743	814.636475	1458.608887	992.127075	27.561832
256.732819	962.545288	1410.822876	944.341125	-4.060913
257.109894	951.167725	1454.057739	882.902100	-13.574663
257.486877	914.759338	1451.782227	948.892151	6.355933
257.863831	930.687988	1583.762451	939.790100	1.393733
258.240753	901.106262	1670.232300	841.942688	-7.692312
258.617645	898.830688	1663.405762	848.769287	-6.547611
258.994507	914.759338	1795.385864	921.585938	0.775198
259.371307	923.861450	1947.845825	914.759338	-0.888892
259.748108	1019.433350	1929.641602	944.341125	-8.250005
260.124878	896.555176	2145.816162	957.994263	4.918035
260.501617	946.616638	2327.857666	896.555176	-3.624383
260.878296	912.483826	2685.114502	978.473938	3.722722
261.254944	887.453125	2778.410889	928.412476	2.166064
261.631561	912.483826	2569.062988	955.718750	2.609892
262.008179	914.759338	2264.143311	946.616638	2.360877
262.384735	907.932800	2154.918213	848.769287	-4.744524
262.761261	937.514587	1997.907227	885.177612	-4.935623
263.137695	901.106262	1881.855713	917.034912	1.624130
263.514191	855.595825	1815.865601	926.136963	7.345971
263.890594	912.483826	1745.324463	878.351013	-4.098361
264.267029	962.545288	1795.385864	946.616638	-1.912569
264.643341	880.626526	1672.507813	892.004150	1.436784
265.019653	885.177612	1758.977539	905.657288	2.343749
265.395935	857.871338	1763.528564	1030.810913	19.095478
265.772217	935.239075	1740.773438	907.932800	-3.389834
266.148407	917.034912	1779.457275	905.657288	-1.319264
266.524597	928.412476	1818.141113	983.024963	6.138106
266.900726	928.412476	1849.998413	948.892151	2.222221
267.276855	896.555176	1929.641602	912.483826	1.541851
267.652924	944.341125	1991.080688	926.136963	-1.739130
268.028992	976.198425	2027.489014	898.830688	-7.359311
268.404999	1003.504700	2032.040039	930.687988	-7.079650
268.781006	914.759338	2034.315552	1014.882263	8.943091
269.156921	919.310425	2011.560425	894.279663	-2.291670
269.532837	928.412476	2000.182739	892.004150	-3.397027
269.908661	921.585938	1991.080688	892.004150	-2.765959
270.284546	923.861450	2009.284912	932.963501	0.838571
270.660339	919.310425	2050.244141	980.749451	5.432593
271.036133	905.657288	2068.448486	951.167725	3.913896
271.411835	892.004150	2063.897461	914.759338	1.941746
271.787537	869.248962	2266.418701	910.208313	2.931595
272.163239	894.279663	2571.338623	919.310425	1.492539
272.538849	960.269775	2598.644775	992.127075	1.944445
272.914459	960.269775	2453.011475	964.820801	0.304877
273.290070	905.657288	2430.256104	914.759338	0.597013
273.665588	866.973450	2387.021240	973.922913	7.035927
274.041046	932.963501	2323.306641	885.177612	-3.436985
274.416565	889.728638	2325.582275	917.034912	1.901745
274.791962	951.167725	2216.357178	967.096313	1.258988
275.167389	889.728638	2264.143311	944.341125	3.973509
275.542755	928.412476	2136.714111	930.687988	0.188323
275.918060	971.647400	2179.948975	948.892151	-1.883243
276.293365	939.790100	2179.948975	919.310425	-1.651375
276.668640	917.034912	2220.908203	962.545288	3.490399
277.043854	942.065613	2341.510986	910.208313	-2.276423
277.419037	944.341125	2323.306641	935.239075	-0.660064
277.794189	914.759338	2291.449463	876.075500	-2.809916
278.169312	860.146851	2330.133301	923.861450	4.334366
278.544373	910.208313	2261.867676	937.514587	2.020204
278.919464	892.004150	2236.836914	926.136963	2.538071
279.294464	896.555176	2318.755615	869.248962	-1.919998
279.669464	862.422363	2236.836914	901.106262	2.814573
280.044403	889.728638	2239.112549	962.545288	5.396288
280.419312	926.136963	2302.827148	912.483826	-0.991736
280.794189	896.555176	2380.194824	980.749451	5.674847
281.169037	896.555176	2366.541748	969.371887	4.953563
281.543854	953.443237	2566.787354	971.647400	1.128350
281.918671	885.177612	2603.195801	928.412476	2.516554
282.293365	951.167725	2701.043213	878.351013	-4.161251
282.668091	980.749451	2746.553711	894.279663	-4.896907
283.042786	917.034912	2960.452637	946.616638	1.447659
283.417419	857.871338	2892.187012	964.820801	5.257270
283.792053	889.728638	2842.125488	969.371887	4.079255
284.166595	905.657288	2682.839111	953.443237	2.688861
284.541138	919.310425	2664.634766	939.790100	1.173402
284.915619	919.310425	2594.093750	948.892151	1.766302
285.290100	898.830688	2687.390137	957.994263	3.307890
285.664520	880.626526	2776.135498	960.269775	4.201681
286.038940	805.534363	2862.605225	921.585938	5.641593
286.413300	876.075500	2846.676514	969.371887	4.734413
286.787628	887.453125	2935.421875	937.514587	2.444445
287.161896	889.728638	3147.045166	953.443237	2.822582
287.536194	835.116150	3108.361328	1003.504700	7.407408
287.910400	901.106262	3005.962891	903.381775	0.108108
288.284607	869.248962	2869.431641	942.065613	3.640500
288.658752	921.585938	2812.543701	951.167725	1.564381
289.032867	951.167725	2662.359375	887.453125	-3.723405
289.406921	946.616638	2851.227539	901.106262	-2.389484
289.781006	957.994263	2778.410889	1001.229126	2.374998
290.154999	889.728638	2792.063965	969.371887	4.186604
290.529022	898.830688	2883.084961	917.034912	0.917434
290.902954	928.412476	3165.249512	910.208313	-0.813835
291.276825	930.687988	3192.555664	969.371887	1.710264
291.650757	930.687988	3044.646729	896.555176	-1.614640
292.024597	928.412476	3081.055176	903.381775	-1.162789
292.398407	885.177612	3071.953125	964.820801	3.642038
292.772156	889.728638	2912.666504	930.687988	2.024746
293.145905	871.524475	2807.992676	919.310425	2.467686
293.519592	821.463013	2726.073975	1012.606750	10.035842
293.893280	871.524475	2924.044189	939.790100	3.325942
294.266907	878.351013	2880.809326	919.310425	2.045456
294.640533	857.871338	2994.585449	932.963501	3.514376
295.014069	928.412476	3210.759766	932.963501	0.199401
295.387604	860.146851	3283.576416	973.922913	4.694837
295.761078	932.963501	3345.015625	994.402588	2.547171
296.134552	903.381775	3363.219727	969.371887	2.682702
296.507996	869.248962	3360.944336	946.616638	3.105021
296.881378	921.585938	3504.302002	921.585938	0.000000
297.254730	903.381775	3549.812500	887.453125	-0.601892
297.628021	894.279663	3863.834229	953.443237	1.992338
298.001282	942.065613	3868.385254	937.514587	-0.155520
298.374573	942.065613	3813.772949	1019.433350	2.694137
298.747803	939.790100	3745.507324	917.034912	-0.811029
299.121002	880.626526	3581.669678	860.146851	-0.758214
299.494141	967.096313	3335.913574	960.269775	-0.288183
299.867188	928.412476	3281.301025	955.718750	1.160543
300.240265	942.065613	3304.056152	955.718750	0.578035
300.613312	894.279663	3092.432861	930.687988	1.656314
300.986328	937.514587	3124.290039	939.790100	0.104058
301.359314	910.208313	3249.443604	912.483826	0.097276
301.732239	887.453125	3115.187988	912.483826	1.123594
302.105103	896.555176	3217.586426	960.269775	2.745099
302.477997	932.963501	3140.218750	987.576050	2.474229
302.850830	919.310425	3122.014648	951.167725	1.446281
303.223602	917.034912	2976.381104	917.034912	0.000000
303.596375	905.657288	2930.870850	964.820801	2.921347
303.969116	887.453125	2894.462402	928.412476	2.040815
304.341766	930.687988	2873.982666	1010.331238	4.098362
304.714478	866.973450	2933.146240	1051.290649	8.920706
305.087067	857.871338	2860.329590	964.820801	5.340909
305.459656	841.942688	3026.442627	1012.606750	7.812500
305.832214	928.412476	2878.533936	1028.535400	5.134189
306.204681	964.820801	2962.728027	976.198425	0.569477
306.577148	919.310425	2876.258301	1071.770264	7.790695
306.949646	892.004150	2949.074951	1115.005249	10.840711
307.322021	935.239075	2914.942139	1069.494751	6.781607
307.694397	876.075500	2903.564453	1112.729614	11.672276
308.066742	869.248962	2896.738037	1133.209351	13.019078
308.439026	903.381775	2930.870850	1128.658325	11.111111
308.811279	951.167725	3008.238525	1226.505737	13.384955
309.183502	898.830688	3188.004639	1331.179688	18.886683
309.555695	919.310425	3240.341553	1215.128052	12.745094
309.927887	935.239075	3308.607178	1242.434326	12.943430
310.299988	887.453125	3217.586426	1285.669312	17.089846
310.672058	882.902100	3258.545898	1338.006226	19.157085
311.044128	939.790100	3397.352539	1315.250977	15.277776
311.416168	853.320313	3420.107666	1338.006226	18.882978
311.788147	944.341125	3358.668701	1285.669312	14.137609
312.160065	930.687988	3306.331787	1358.485962	18.007666
312.531982	905.657288	3399.628174	1319.802124	16.605841
312.903870	957.994263	3372.321777	1397.169800	18.190388
313.275696	910.208313	3151.596191	1203.750488	13.096447
313.647491	907.932800	3299.505127	1269.740601	15.128449
314.019318	942.065613	3076.504150	1308.424438	17.164179
314.391022	955.718750	3151.596191	1237.883301	12.849740
314.762726	855.595825	3201.657715	1467.710938	26.091173
315.134369	800.983337	3231.239502	1388.067749	24.157307
315.505981	914.759338	3449.689453	1340.281738	16.786356
315.877594	955.718750	3488.373291	1422.200562	18.418692
316.249146	914.759338	3326.811523	1399.445313	20.094339
316.620636	948.892151	3240.341553	1383.516602	18.967228
316.992157	919.310425	3096.983887	1383.516602	21.316612
317.363586	878.351013	2978.656738	1351.659302	22.535210
317.735016	919.310425	2999.136475	1303.873413	18.490150
318.106354	905.657288	2990.034424	1308.424438	19.323141
318.477722	878.351013	2955.901611	1308.424438	20.700985
318.849060	955.718750	3062.851074	1292.495850	15.982722
319.220306	841.942688	3019.616211	1201.474976	16.509926
319.591522	921.585938	3094.708252	1285.669312	16.753929
319.962738	1001.229126	3142.494141	1328.904175	15.302872
320.333923	857.871338	3253.994629	1249.260864	16.334282
320.705017	980.749451	3156.147461	1301.597900	14.748955
321.076111	962.545288	3117.463379	1265.189575	14.044353
321.447144	882.902100	3122.014648	1303.873413	18.800810
321.818176	885.177612	2844.401123	1251.536499	18.699188
322.189178	816.911987	2892.187012	1303.873413	23.464912
322.560120	887.453125	2933.146240	1269.740601	18.687429
322.931030	939.790100	3126.565674	1269.740601	15.088448
323.301910	898.830688	3149.320801	1292.495850	17.492418
