Jaz Data File
++++++++++++++++++++++++++++++++++++
Date: Wed Feb 07 06:36:48 2024
User: jaz
Dark Spectrum Present: Yes
Reference Spectrum Present: Yes
Processed Spectrum Present: Yes
Spectrometers: JAZA3692
Integration Time (usec): 40000 (JAZA3692)
Spectra Averaged: 1 (JAZA3692)
Boxcar Smoothing: 0 (JAZA3692)
Correct for Electrical Dark: No (JAZA3692)
Strobe/Lamp Enabled: Yes (JAZA3692)
Correct for Detector Non-linearity: No (JAZA3692)
Correct for Stray Light: No (JAZA3692)
Number of Pixels in Processed Spectrum: 2048
>>>>>Begin Processed Spectral Data<<<<<
W	D	R	S	P
190.244385	0.000000	0.000000	0.000000	0.000000
190.627136	0.000000	0.000000	0.000000	0.000000
191.009842	1221.954712	1244.709839	1235.607788	60.000000
191.392532	1335.730713	1244.709839	1260.638550	82.499939
191.775177	1317.526489	1301.597900	1226.505737	571.430115
192.157791	1219.679199	1292.495850	1285.669312	90.625031
192.540390	1322.077637	1281.118164	1233.332275	216.666275
192.922943	1274.291626	1312.975464	1267.465088	-17.647003
193.305481	1333.455200	1312.975464	1356.210449	-111.111046
193.687958	1281.118164	1272.016113	1297.046875	-175.001343
194.070419	1290.220337	1285.669312	1331.179688	-900.002686
194.452866	1244.709839	1265.189575	1317.526489	355.554626
194.835251	1290.220337	1306.148926	1347.108276	357.143616
195.217621	1299.322388	1349.383789	1278.842651	-40.909233
195.599960	1312.975464	1301.597900	1338.006226	-220.001068
195.982254	1297.046875	1297.046875	1290.220337	0.000000
196.364517	1297.046875	1310.699951	1306.148926	66.666664
196.746750	1326.628662	1365.312500	1292.495850	-88.235329
197.128952	1290.220337	1353.934937	1269.740601	-32.142925
197.511139	1328.904175	1326.628662	1262.914063	2900.010742
197.893280	1331.179688	1335.730713	1224.230225	-2350.008057
198.275391	1310.699951	1312.975464	1340.281738	1300.005371
198.657471	1276.567139	1297.046875	1344.832764	333.332550
199.039520	1244.709839	1349.383789	1328.904175	80.434853
199.421539	1347.108276	1331.179688	1349.383789	-14.285714
199.803513	1256.087524	1285.669312	1310.699951	184.615036
200.185471	1253.812012	1358.485962	1315.250977	58.695564
200.567383	1335.730713	1272.016113	1294.771362	64.285660
200.949265	1283.393677	1287.944824	1231.056763	-1149.971802
201.331131	1326.628662	1335.730713	1322.077637	-50.000000
201.712967	1299.322388	1315.250977	1258.363037	-257.143616
202.094742	1235.607788	1308.424438	1226.505737	-12.499958
202.476517	1233.332275	1278.842651	1331.179688	215.000229
202.858231	1258.363037	1281.118164	1251.536499	-30.000000
203.239944	1301.597900	1292.495850	1285.669312	175.000000
203.621582	1256.087524	1328.904175	1310.699951	74.999916
204.003235	1363.036987	1285.669312	1258.363037	135.294159
204.384827	1276.567139	1292.495850	1317.526489	257.141663
204.766388	1281.118164	1274.291626	1294.771362	-200.001785
205.147934	1301.597900	1292.495850	1192.372925	1200.004028
205.529449	1403.996338	1312.975464	1287.944824	127.499886
205.910904	1283.393677	1258.363037	1215.128052	272.728241
206.292343	1210.577026	1322.077637	1287.944824	69.387779
206.673767	1308.424438	1281.118164	1210.577026	358.333069
207.055115	1242.434326	1372.139038	1287.944824	35.087776
207.436462	1328.904175	1326.628662	1237.883301	4000.016113
207.817780	1303.873413	1399.445313	1294.771362	-9.523773
208.199051	1251.536499	1328.904175	1251.536499	0.000000
208.580307	1242.434326	1390.343262	1258.363037	10.769269
208.961517	1267.465088	1306.148926	1301.597900	88.235329
209.342712	1292.495850	1312.975464	1237.883301	-266.667847
209.723846	1242.434326	1221.954712	1374.414551	-644.446838
210.104965	1322.077637	1285.669312	1278.842651	118.750275
210.486069	1267.465088	1306.148926	1224.230225	-111.764671
210.867111	1281.118164	1226.505737	1240.158813	75.000053
211.248123	1301.597900	1299.322388	1233.332275	3000.010742
211.629120	1322.077637	1319.802124	1299.322388	1000.005371
212.010071	1274.291626	1338.006226	1283.393677	14.285660
212.390991	1262.914063	1283.393677	1249.260864	-66.667259
212.771881	1294.771362	1351.659302	1203.750488	-160.000305
213.152756	1319.802124	1374.414551	1219.679199	-183.333588
213.533569	1306.148926	1333.455200	1303.873413	-8.333296
213.914368	1226.505737	1369.863525	1315.250977	61.904720
214.295135	1267.465088	1317.526489	1212.852539	-109.091133
214.675858	1249.260864	1365.312500	1301.597900	45.098061
215.056549	1322.077637	1328.904175	1265.189575	-833.336914
215.437225	1285.669312	1299.322388	1285.669312	0.000000
215.817841	1276.567139	1360.761475	1285.669312	10.810908
216.198441	1358.485962	1340.281738	1272.016113	474.998840
216.579025	1353.934937	1385.792114	1328.904175	-78.571815
216.959549	1299.322388	1292.495850	1278.842651	300.001801
217.340057	1278.842651	1344.832764	1272.016113	-10.344790
217.720535	1301.597900	1347.108276	1256.087524	-100.000000
218.100967	1294.771362	1301.597900	1237.883301	-833.336914
218.481369	1317.526489	1335.730713	1301.597900	-87.499413
218.861740	1344.832764	1292.495850	1269.740601	143.478394
219.242065	1256.087524	1228.781250	1319.802124	-233.333191
219.622391	1256.087524	1303.873413	1331.179688	157.142960
220.002670	1274.291626	1317.526489	1185.546387	-205.263138
220.382919	1344.832764	1228.781250	1292.495850	45.098003
220.763123	1308.424438	1322.077637	1251.536499	-416.663849
221.143295	1356.210449	1322.077637	1269.740601	253.333496
221.523453	1269.740601	1340.281738	1338.006226	96.774208
221.903549	1251.536499	1356.210449	1360.761475	104.347809
222.283630	1297.046875	1333.455200	1253.812012	-118.749939
222.663696	1317.526489	1319.802124	1331.179688	599.973206
223.043701	1206.026001	1333.455200	1310.699951	82.142830
223.423676	1224.230225	1378.965576	1301.597900	50.000000
223.803635	1244.709839	1347.108276	1303.873413	57.777809
224.183548	1260.638550	1285.669312	1315.250977	218.181244
224.563431	1260.638550	1283.393677	1326.628662	290.001068
224.943283	1322.077637	1335.730713	1219.679199	-750.002686
225.323105	1246.985352	1353.934937	1285.669312	36.170277
225.702881	1260.638550	1308.424438	1306.148926	95.238106
226.082642	1242.434326	1265.189575	1265.189575	100.000000
226.462357	1365.312500	1383.516602	1310.699951	-300.001343
226.842041	1219.679199	1369.863525	1224.230225	3.030293
227.221695	1319.802124	1315.250977	1262.914063	1249.971802
227.601318	1306.148926	1406.271851	1178.719727	-127.272751
227.980911	1276.567139	1463.159912	1267.465088	-4.878030
228.360474	1287.944824	1383.516602	1292.495850	4.761893
228.739990	1283.393677	1440.404663	1322.077637	24.637741
229.119476	1285.669312	1408.547363	1278.842651	-5.555638
229.498932	1283.393677	1424.476074	1283.393677	0.000000
229.878372	1299.322388	1504.119263	1285.669312	-6.666643
230.257736	1262.914063	1515.496826	1294.771362	12.612618
230.637115	1174.168701	1572.384888	1281.118164	26.857136
231.016449	1242.434326	1454.057739	1244.709839	1.075265
231.395737	1267.465088	1542.803101	1253.812012	-4.958660
231.774994	1269.740601	1442.680176	1249.260864	-11.842134
232.154221	1276.567139	1476.812988	1235.607788	-20.454531
232.533417	1231.056763	1451.782227	1297.046875	29.896919
232.912582	1265.189575	1419.924927	1331.179688	42.647083
233.291702	1299.322388	1392.618774	1294.771362	-4.878030
233.670792	1276.567139	1447.231201	1308.424438	18.666672
234.049866	1251.536499	1444.955688	1285.669312	17.647066
234.428894	1349.383789	1417.649414	1242.434326	-156.666641
234.807892	1292.495850	1410.822876	1203.750488	-75.000076
235.186874	1308.424438	1444.955688	1258.363037	-36.666626
235.565781	1203.750488	1504.119263	1215.128052	3.787865
235.944687	1274.291626	1490.466064	1262.914063	-5.263140
236.323547	1333.455200	1501.843750	1274.291626	-35.135151
236.702377	1287.944824	1481.364014	1301.597900	7.058801
237.081177	1283.393677	1501.843750	1312.975464	13.541670
237.459946	1269.740601	1515.496826	1287.944824	7.407431
237.838669	1265.189575	1535.976563	1297.046875	11.764709
238.217361	1206.026001	1565.558350	1317.526489	31.012644
238.596039	1244.709839	1515.496826	1322.077637	28.571461
238.974670	1299.322388	1561.007324	1267.465088	-12.173914
239.353271	1297.046875	1488.190552	1356.210449	30.952410
239.731842	1244.709839	1533.701050	1258.363037	4.724434
240.110367	1308.424438	1488.190552	1283.393677	-13.924071
240.488876	1301.597900	1608.793213	1249.260864	-17.037056
240.867340	1356.210449	1590.588989	1228.781250	-54.368969
241.245789	1306.148926	1545.078613	1274.291626	-13.333337
241.624176	1303.873413	1508.670288	1299.322388	-2.222214
242.002548	1297.046875	1706.640625	1221.954712	-18.333328
242.380890	1351.659302	1758.977539	1253.812012	-24.022320
242.759186	1272.016113	1736.222412	1292.495850	4.411775
243.137451	1303.873413	1904.610962	1310.699951	1.136359
243.515686	1274.291626	1966.049927	1390.343262	16.776327
243.893890	1274.291626	2011.560425	1299.322388	3.395066
244.272049	1210.577026	1981.978638	1294.771362	10.914462
244.650192	1331.179688	1843.171875	1292.495850	-7.555552
245.028290	1308.424438	1827.243164	1312.975464	0.877190
245.406357	1190.097412	1699.814087	1310.699951	23.660702
245.784393	1272.016113	1692.987427	1256.087524	-3.783771
246.162384	1308.424438	1756.702026	1276.567139	-7.106601
246.540359	1278.842651	1793.110352	1231.056763	-9.292027
246.918289	1208.301514	1822.692139	1344.832764	22.222221
247.296204	1338.006226	2052.519775	1319.802124	-2.547762
247.674057	1294.771362	2245.938965	1265.189575	-3.110050
248.051895	1338.006226	2393.847900	1276.567139	-5.818968
248.429703	1347.108276	2443.909424	1285.669312	-5.601650
248.807465	1278.842651	2473.491211	1278.842651	0.000000
249.185196	1281.118164	2316.480225	1358.485962	7.472536
249.562897	1317.526489	2125.336426	1262.914063	-6.760554
249.940567	1358.485962	2098.030273	1281.118164	-10.461550
250.318192	1312.975464	1972.876587	1281.118164	-4.827587
250.695801	1317.526489	1986.529663	1328.904175	1.700692
251.073349	1324.353149	1859.100464	1310.699951	-2.553205
251.450882	1303.873413	1827.243164	1312.975464	1.739124
251.828400	1276.567139	1879.580200	1319.802124	7.169826
252.205872	1221.954712	1790.834839	1294.771362	12.799999
252.583313	1269.740601	1900.059814	1392.618774	19.494595
252.960693	1226.505737	1938.743774	1303.873413	10.862615
253.338074	1303.873413	2045.693237	1312.975464	1.226989
253.715408	1287.944824	2077.550537	1340.281738	6.628234
254.092682	1319.802124	1945.570313	1344.832764	3.999986
254.469955	1258.363037	1806.763550	1344.832764	15.767623
254.847198	1231.056763	1779.457275	1322.077637	16.597519
255.224365	1283.393677	1854.549438	1326.628662	7.569736
255.601563	1215.128052	1768.079712	1258.363037	7.818945
255.978683	1338.006226	1834.069824	1315.250977	-4.587163
256.355743	1260.638550	1818.141113	1340.281738	14.285708
256.732819	1240.158813	1906.886475	1278.842651	5.802045
257.109894	1301.597900	1829.518677	1231.056763	-13.362069
257.486877	1267.465088	1920.539551	1272.016113	0.696862
257.863831	1276.567139	1934.192627	1303.873413	4.152253
258.240753	1326.628662	1943.294800	1408.547363	13.284125
258.617645	1303.873413	2029.764526	1353.934937	6.896561
258.994507	1251.536499	2118.509766	1256.087524	0.524933
259.371307	1274.291626	2184.500000	1269.740601	-0.499998
259.748108	1292.495850	2286.898438	1253.812012	-3.890159
260.124878	1212.852539	2493.970703	1312.975464	7.815276
260.501617	1315.250977	2760.206787	1349.383789	2.362205
260.878296	1294.771362	2919.493164	1347.108276	3.221285
261.254944	1301.597900	3056.024414	1338.006226	2.075227
261.631561	1262.914063	2933.146240	1324.353149	3.678476
262.008179	1347.108276	2657.808350	1276.567139	-5.381944
262.384735	1290.220337	2484.868652	1312.975464	1.904755
262.761261	1278.842651	2275.520752	1349.383789	7.077625
263.137695	1281.118164	2311.929199	1290.220337	0.883011
263.514191	1206.026001	2141.265137	1290.220337	9.002439
263.890594	1219.679199	2107.132324	1301.597900	9.230763
264.267029	1265.189575	2141.265137	1219.679199	-5.194800
264.643341	1251.536499	2145.816162	1297.046875	5.089054
265.019653	1333.455200	2111.683350	1351.659302	2.339173
265.395935	1312.975464	2152.642578	1262.914063	-5.962053
265.772217	1256.087524	2045.693237	1292.495850	4.610950
266.148407	1281.118164	2045.693237	1333.455200	6.845245
266.524597	1281.118164	2079.825928	1274.291626	-0.854698
266.900726	1237.883301	2286.898438	1344.832764	10.195226
267.276855	1322.077637	2352.888428	1335.730713	1.324499
267.652924	1272.016113	2407.500977	1376.690063	9.218436
268.028992	1351.659302	2346.062012	1260.638550	-9.153309
268.404999	1303.873413	2430.256104	1338.006226	3.030303
268.781006	1335.730713	2416.603027	1401.720825	6.105264
269.156921	1290.220337	2334.684326	1328.904175	3.703702
269.532837	1322.077637	2325.582275	1315.250977	-0.680282
269.908661	1233.332275	2409.776611	1274.291626	3.481622
270.284546	1301.597900	2277.796387	1274.291626	-2.797205
270.660339	1365.312500	2409.776611	1322.077637	-4.139430
271.036133	1260.638550	2450.735840	1272.016113	0.956020
271.411835	1285.669312	2318.755615	1260.638550	-2.422911
271.787537	1256.087524	2594.093750	1342.557251	6.462580
272.163239	1215.128052	2814.819336	1385.792114	10.668562
272.538849	1315.250977	2987.758789	1374.414551	3.537417
272.914459	1299.322388	2912.666504	1381.241089	5.077571
273.290070	1272.016113	2846.676514	1322.077637	3.179195
273.665588	1281.118164	2673.737061	1351.659302	5.065358
274.041046	1285.669312	2714.696289	1342.557251	3.980886
274.416565	1246.985352	2550.858887	1356.210449	8.376970
274.791962	1206.026001	2621.399902	1376.690063	12.057878
275.167389	1319.802124	2544.032227	1303.873413	-1.301121
275.542755	1283.393677	2498.521729	1322.077637	3.183530
275.918060	1244.709839	2523.552490	1237.883301	-0.533806
276.293365	1281.118164	2459.837891	1301.597900	1.737456
276.668640	1317.526489	2584.991699	1308.424438	-0.718130
277.043854	1272.016113	2546.307861	1340.281738	5.357142
277.419037	1260.638550	2687.390137	1292.495850	2.232855
277.794189	1287.944824	2716.971924	1401.720825	7.961781
278.169312	1217.403687	2714.696289	1381.241089	10.942244
278.544373	1294.771362	2682.839111	1303.873413	0.655735
278.919464	1322.077637	2537.205811	1178.719727	-11.797760
279.294464	1287.944824	2569.062988	1347.108276	4.618111
279.669464	1237.883301	2619.124512	1372.139038	9.719934
280.044403	1256.087524	2669.185791	1358.485962	7.246377
280.419312	1262.914063	2689.665527	1287.944824	1.754388
280.794189	1276.567139	2710.145264	1385.792114	7.619046
281.169037	1331.179688	2680.563477	1353.934937	1.686344
281.543854	1353.934937	2810.268311	1381.241089	1.874993
281.918671	1228.781250	2851.227539	1419.924927	11.781202
282.293365	1312.975464	2924.044189	1367.588013	3.389834
282.668091	1358.485962	3056.024414	1331.179688	-1.608581
283.042786	1353.934937	3147.045166	1358.485962	0.253806
283.417419	1299.322388	3030.993652	1397.169800	5.650461
283.792053	1237.883301	3046.922363	1378.965576	7.798741
284.166595	1283.393677	2905.840088	1349.383789	4.067321
284.541138	1199.199463	2873.982666	1294.771362	5.706523
284.915619	1237.883301	2951.350586	1363.036987	7.304119
285.290100	1308.424438	3012.789551	1338.006226	1.735649
285.664520	1297.046875	3067.402100	1369.863525	4.113110
286.038940	1326.628662	3117.463379	1249.260864	-4.320209
286.413300	1269.740601	3112.912354	1253.812012	-0.864195
286.787628	1310.699951	3244.892578	1351.659302	2.117646
287.161896	1285.669312	3470.169189	1422.200562	6.250000
287.536194	1240.158813	3360.944336	1401.720825	7.618026
287.910400	1290.220337	3281.301025	1328.904175	1.942856
288.284607	1331.179688	3219.861816	1388.067749	3.012051
288.658752	1303.873413	3096.983887	1272.016113	-1.776650
289.032867	1303.873413	2974.105713	1317.526489	0.817436
289.406921	1278.842651	2924.044189	1378.965576	6.085754
289.781006	1269.740601	3046.922363	1274.291626	0.256081
290.154999	1294.771362	3128.841064	1328.904175	1.861042
290.529022	1258.363037	3213.035400	1326.628662	3.492433
290.902954	1308.424438	3272.198975	1297.046875	-0.579372
291.276825	1292.495850	3429.209961	1349.383789	2.662403
291.650757	1324.353149	3374.597412	1338.006226	0.665924
292.024597	1369.863525	3447.414063	1360.761475	-0.438115
292.398407	1281.118164	3356.393066	1328.904175	2.302635
292.772156	1290.220337	3310.882813	1363.036987	3.603603
293.145905	1240.158813	3206.208740	1349.383789	5.555554
293.519592	1283.393677	3192.555664	1267.465088	-0.834324
293.893280	1306.148926	3156.147461	1278.842651	-1.476016
294.266907	1310.699951	3297.229736	1335.730713	1.260024
294.640533	1278.842651	3360.944336	1426.751587	7.103829
295.014069	1272.016113	3481.546875	1358.485962	3.913494
295.387604	1317.526489	3615.802490	1365.312500	2.079211
295.761078	1267.465088	3572.567627	1319.802124	2.270486
296.134552	1235.607788	3590.771729	1401.720825	7.053141
296.507996	1251.536499	3593.047363	1460.884399	8.940720
296.881378	1178.719727	3572.567627	1333.455200	6.463881
297.254730	1285.669312	3875.211914	1317.526489	1.230224
297.628021	1262.914063	4068.631104	1406.271851	5.109488
298.001282	1274.291626	4027.671875	1417.649414	5.206610
298.374573	1310.699951	4068.631104	1342.557251	1.155116
298.747803	1253.812012	3993.539063	1372.139038	4.318935
299.121002	1269.740601	3795.568604	1315.250977	1.801800
299.494141	1228.781250	3702.272461	1331.179688	4.139834
299.867188	1221.954712	3645.384277	1372.139038	6.197181
300.240265	1253.812012	3538.434814	1358.485962	4.581673
300.613312	1278.842651	3424.658691	1351.659302	3.393425
300.986328	1283.393677	3401.903564	1299.322388	0.751883
301.359314	1251.536499	3310.882813	1344.832764	4.530383
301.732239	1256.087524	3333.637939	1360.761475	5.038335
302.105103	1253.812012	3413.281250	1394.894287	6.533192
302.477997	1258.363037	3401.903564	1351.659302	4.352437
302.850830	1285.669312	3408.730225	1331.179688	2.143621
303.223602	1285.669312	3272.198975	1319.802124	1.718213
303.596375	1256.087524	3315.433838	1390.343262	6.519338
303.969116	1287.944824	3224.413086	1403.996338	5.992947
304.341766	1294.771362	3283.576416	1444.955688	7.551486
304.714478	1349.383789	3294.954102	1392.618774	2.222227
305.087067	1347.108276	3035.544678	1367.588013	1.212941
305.459656	1246.985352	3192.555664	1394.894287	7.602344
305.832214	1294.771362	3224.413086	1424.476074	6.721699
306.204681	1340.281738	3235.790527	1533.701050	10.204084
306.577148	1303.873413	3233.515137	1499.568237	10.141511
306.949646	1347.108276	3326.811523	1513.221313	8.390805
307.322021	1281.118164	3231.239502	1460.884399	9.218207
307.694397	1287.944824	3162.973877	1583.762451	15.776695
308.066742	1262.914063	3251.719238	1444.955688	9.153316
308.439026	1351.659302	3285.852051	1615.619751	13.647060
308.811279	1310.699951	3404.179199	1590.588989	13.369563
309.183502	1253.812012	3606.700439	1665.681274	17.504837
309.555695	1235.607788	3622.629150	1667.956787	18.112490
309.927887	1215.128052	3608.976074	1733.946899	21.673006
310.299988	1237.883301	3547.536865	1788.559326	23.842365
310.672058	1333.455200	3574.843262	1729.395752	17.664970
311.044128	1219.679199	3684.068115	1786.283813	22.991688
311.416168	1272.016113	3693.170166	1761.253052	20.206766
311.788147	1253.812012	3618.078125	1829.518677	24.350332
312.160065	1187.821899	3715.925537	1902.335449	28.262829
312.531982	1328.904175	3595.322754	1879.580200	24.297192
312.903870	1315.250977	3613.527100	1815.865601	21.782179
313.275696	1301.597900	3449.689453	1786.283813	22.563559
313.647491	1276.567139	3413.281250	1763.528564	22.790201
314.019318	1342.557251	3360.944336	1749.875488	20.180382
314.391022	1328.904175	3397.352539	1784.008301	22.002201
314.762726	1328.904175	3574.843262	1681.609863	15.704153
315.134369	1260.638550	3502.026611	1770.355225	22.741116
315.505981	1267.465088	3606.700439	1859.100464	25.291828
315.877594	1249.260864	3718.200928	1927.366089	27.465441
316.249146	1315.250977	3611.251465	1836.345337	22.695742
316.620636	1267.465088	3583.945313	1809.039063	23.379175
316.992157	1276.567139	3338.188965	1809.039063	25.827818
317.363586	1240.158813	3388.250488	1706.640625	21.716103
317.735016	1283.393677	3301.780762	1802.212524	25.704626
318.106354	1274.291626	3269.923340	1777.181763	25.199547
318.477722	1258.363037	3306.331787	1772.630737	25.111111
