Jaz Data File
++++++++++++++++++++++++++++++++++++
Date: Wed Feb 07 06:44:17 2024
User: jaz
Dark Spectrum Present: Yes
Reference Spectrum Present: Yes
Processed Spectrum Present: Yes
Spectrometers: JAZA3692
Integration Time (usec): 40000 (JAZA3692)
Spectra Averaged: 1 (JAZA3692)
Boxcar Smoothing: 0 (JAZA3692)
Correct for Electrical Dark: No (JAZA3692)
Strobe/Lamp Enabled: Yes (JAZA3692)
Correct for Detector Non-linearity: No (JAZA3692)
Correct for Stray Light: No (JAZA3692)
Number of Pixels in Processed Spectrum: 2048
>>>>>Begin Processed Spectral Data<<<<<
W	D	R	S	P
190.244385	0.000000	0.000000	0.000000	0.000000
190.627136	0.000000	0.000000	0.000000	0.000000
191.009842	1083.147949	1133.209351	996.678101	-172.727585
191.392532	1112.729614	1119.556274	1069.494751	-633.323792
191.775177	1108.178589	1076.321289	1037.637451	221.428482
192.157791	1074.045776	1146.862427	994.402588	-109.374969
192.540390	1196.923950	1101.352051	1117.280762	83.333267
192.922943	1142.311401	1117.280762	1053.566162	354.546417
193.305481	1085.423462	1274.291626	1110.454102	13.252969
193.687958	1201.474976	1078.596802	1183.270874	14.814756
194.070419	1180.995239	1158.240112	1083.147949	430.001068
194.452866	1130.933838	1167.342163	1158.240112	75.000084
194.835251	1140.035889	1199.199463	1126.382813	-23.076828
195.217621	1155.964600	1133.209351	1117.280762	169.999619
195.599960	1092.250000	1165.066650	1128.658325	50.000000
195.982254	1162.791138	1099.076538	1142.311401	32.142925
196.364517	1101.352051	1133.209351	1160.515625	185.714340
196.746750	1085.423462	1192.372925	1149.138062	59.574493
197.128952	1162.791138	1133.209351	1044.463989	400.000000
197.511139	1165.066650	1110.454102	1085.423462	145.833130
197.893280	1151.413574	1174.168701	1142.311401	-40.000538
198.275391	1110.454102	1140.035889	1089.974487	-69.230484
198.657471	1199.199463	1171.893188	1028.535400	624.999451
199.039520	1146.862427	1137.760376	1176.444214	-325.001343
199.421539	1180.995239	1174.168701	1078.596802	1500.005371
199.803513	1124.107300	1119.556274	1080.872437	950.002686
200.185471	1206.026001	1137.760376	1103.627563	150.000000
200.567383	1117.280762	1180.995239	1051.290649	-103.571617
200.949265	1126.382813	1158.240112	1087.698975	-121.428490
201.331131	1165.066650	1208.301514	1030.810913	-310.526581
201.712967	1183.270874	1144.586914	1119.556274	164.705475
202.094742	1124.107300	1169.617676	1103.627563	-45.000149
202.476517	1160.515625	1149.138062	1110.454102	440.002136
202.858231	1153.689087	1133.209351	1140.035889	66.666862
203.239944	1165.066650	1149.138062	1121.831787	271.429352
203.621582	1171.893188	1137.760376	1117.280762	159.999786
204.003235	1174.168701	1140.035889	1151.413574	66.666428
204.384827	1153.689087	1203.750488	1112.729614	-81.818466
204.766388	1174.168701	1092.250000	1178.719727	-5.555539
205.147934	1133.209351	1228.781250	1071.770264	-64.285721
205.529449	1060.392700	1231.056763	1178.719727	69.333298
205.910904	1135.484863	1135.484863	1110.454102	0.000000
206.292343	1167.342163	1126.382813	1167.342163	-0.000000
206.673767	1169.617676	1149.138062	1071.770264	477.779572
207.055115	1185.546387	1231.056763	1021.708862	-360.000366
207.436462	1112.729614	1162.791138	1092.250000	-40.908890
207.817780	1137.760376	1171.893188	1069.494751	-200.000000
208.199051	1126.382813	1158.240112	1140.035889	42.856979
208.580307	1174.168701	1142.311401	1124.107300	157.142639
208.961517	1112.729614	1115.005249	1094.525513	-799.957092
209.342712	1051.290649	1130.933838	1094.525513	54.285702
209.723846	1117.280762	1121.831787	1117.280762	0.000000
210.104965	1160.515625	1151.413574	1094.525513	725.002686
210.486069	1099.076538	1149.138062	1096.801025	-4.545433
210.867111	1140.035889	1162.791138	1110.454102	-129.999832
211.248123	1137.760376	1183.270874	1058.117188	-174.999603
211.629120	1167.342163	1185.546387	1133.209351	-187.499420
212.010071	1121.831787	1217.403687	1089.974487	-33.333332
212.390991	1165.066650	1146.862427	1096.801025	374.998840
212.771881	1117.280762	1192.372925	1051.290649	-87.878830
213.152756	1110.454102	1167.342163	1137.760376	48.000008
213.533569	1149.138062	1124.107300	1014.882263	536.363220
213.914368	1142.311401	1108.178589	1085.423462	166.666428
214.295135	1180.995239	1099.076538	1115.005249	80.555466
214.675858	1140.035889	1185.546387	1110.454102	-64.999916
215.056549	1130.933838	1094.525513	1119.556274	31.249895
215.437225	1119.556274	1115.005249	1080.872437	850.002686
215.817841	1171.893188	1217.403687	1094.525513	-169.999619
216.198441	1190.097412	1149.138062	1103.627563	211.111374
216.579025	1190.097412	1160.515625	1105.903076	284.615448
216.959549	1158.240112	1196.923950	1112.729614	-117.647316
217.340057	1135.484863	1151.413574	1146.862427	71.428024
217.720535	1124.107300	1135.484863	1119.556274	-40.000000
218.100967	1144.586914	1194.648438	1092.250000	-104.545189
218.481369	1153.689087	1160.515625	1085.423462	-1000.003601
218.861740	1137.760376	1212.852539	1080.872437	-75.757492
219.242065	1094.525513	1199.199463	1085.423462	-8.695621
219.622391	1099.076538	1199.199463	1067.219238	-31.818188
220.002670	1099.076538	1165.066650	1080.872437	-27.586105
220.382919	1089.974487	1251.536499	1089.974487	0.000000
220.763123	1099.076538	1171.893188	1062.668213	-50.000000
221.143295	1146.862427	1192.372925	1094.525513	-114.999649
221.523453	1112.729614	1146.862427	1089.974487	-66.666428
221.903549	1096.801025	1199.199463	1049.015137	-46.666618
222.283630	1108.178589	1165.066650	1067.219238	-71.999908
222.663696	1140.035889	1144.586914	1080.872437	-1300.002686
223.043701	1169.617676	1224.230225	1155.964600	-24.999887
223.423676	1178.719727	1130.933838	1121.831787	119.047569
223.803635	1135.484863	1092.250000	1140.035889	-10.526286
224.183548	1121.831787	1203.750488	1096.801025	-30.555613
224.563431	1124.107300	1187.821899	1101.352051	-35.714340
224.943283	1215.128052	1265.189575	1117.280762	-195.454086
225.323105	1074.045776	1178.719727	1128.658325	52.173965
225.702881	1133.209351	1221.954712	1055.841675	-87.179405
226.082642	1080.872437	1140.035889	1067.219238	-23.077082
226.462357	1089.974487	1151.413574	1005.780212	-137.036987
226.842041	1103.627563	1153.689087	1096.801025	-13.636297
227.221695	1178.719727	1208.301514	1108.178589	-238.461380
227.601318	1096.801025	1212.852539	1117.280762	17.647108
227.980911	1130.933838	1240.158813	1160.515625	27.083355
228.360474	1083.147949	1171.893188	1080.872437	-2.564095
228.739990	1096.801025	1210.577026	1103.627563	5.999980
229.119476	1121.831787	1228.781250	1115.005249	-6.382957
229.498932	1069.494751	1240.158813	1071.770264	1.333329
229.878372	1067.219238	1331.179688	1105.903076	14.655165
230.257736	1153.689087	1358.485962	1126.382813	-13.333345
230.637115	1087.698975	1308.424438	1171.893188	38.144314
231.016449	1135.484863	1312.975464	1126.382813	-5.128188
231.395737	1096.801025	1237.883301	1151.413574	38.709717
231.774994	1124.107300	1215.128052	1067.219238	-62.500099
232.154221	1140.035889	1303.873413	1062.668213	-47.222195
232.533417	1142.311401	1342.557251	1085.423462	-28.409048
232.912582	1128.658325	1231.056763	1076.321289	-51.111168
233.291702	1151.413574	1306.148926	1044.463989	-69.117744
233.670792	1155.964600	1231.056763	1055.841675	-133.333389
234.049866	1158.240112	1217.403687	1076.321289	-138.461594
234.428894	1096.801025	1144.586914	1083.147949	-28.571356
234.807892	1176.444214	1226.505737	1103.627563	-145.454330
235.186874	1126.382813	1274.291626	1071.770264	-36.923119
235.565781	1101.352051	1244.709839	1094.525513	-4.761889
235.944687	1126.382813	1274.291626	1210.577026	56.923054
236.323547	1146.862427	1303.873413	1087.698975	-37.681091
236.702377	1115.005249	1256.087524	1094.525513	-14.516166
237.081177	1124.107300	1258.363037	1069.494751	-40.678001
237.459946	1215.128052	1290.220337	1083.147949	-175.757202
237.838669	1233.332275	1231.056763	1201.474976	1400.005371
238.217361	1206.026001	1274.291626	1128.658325	-113.333282
238.596039	1119.556274	1342.557251	1103.627563	-7.142889
238.974670	1119.556274	1240.158813	1101.352051	-15.094395
239.353271	1137.760376	1353.934937	1108.178589	-13.684213
239.731842	1149.138062	1253.812012	1058.117188	-86.956566
240.110367	1155.964600	1376.690063	1135.484863	-9.278375
240.488876	1162.791138	1303.873413	1124.107300	-27.419346
240.867340	1060.392700	1424.476074	1080.872437	5.625013
241.245789	1146.862427	1356.210449	1083.147949	-30.434717
241.624176	1083.147949	1406.271851	1112.729614	9.154899
242.002548	1153.689087	1415.373901	1144.586914	-3.478296
242.380890	1121.831787	1447.231201	1080.872437	-12.587408
242.759186	1046.739624	1542.803101	1092.250000	9.174305
243.137451	1067.219238	1699.814087	1153.689087	13.669072
243.515686	1169.617676	1699.814087	1110.454102	-11.158803
243.893890	1151.413574	1652.028076	1053.566162	-19.545462
244.272049	1115.005249	1670.232300	1099.076538	-2.868864
244.650192	1105.903076	1588.313477	1140.035889	7.075472
245.028290	1130.933838	1604.242188	1117.280762	-2.884605
245.406357	1130.933838	1558.731689	1119.556274	-2.659565
245.784393	1119.556274	1570.109375	1112.729614	-1.515173
246.162384	1206.026001	1570.109375	1085.423462	-33.124977
246.540359	1162.791138	1604.242188	1080.872437	-18.556690
246.918289	1137.760376	1626.997314	1101.352051	-7.441859
247.296204	1196.923950	1770.355225	1101.352051	-16.666670
247.674057	1153.689087	2018.386963	1094.525513	-6.842109
248.051895	1187.821899	2195.877686	1119.556274	-6.772008
248.429703	1226.505737	2168.571289	1042.188477	-19.565228
248.807465	1153.689087	2161.744873	1110.454102	-4.288948
249.185196	1155.964600	2045.693237	1101.352051	-6.138113
249.562897	1108.178589	1902.335449	1115.005249	0.859611
249.940567	1101.352051	1961.498901	1110.454102	1.058197
250.318192	1160.515625	1781.732788	1099.076538	-9.890114
250.695801	1144.586914	1695.262939	1089.974487	-9.917342
251.073349	1096.801025	1647.477051	1103.627563	1.239665
251.450882	1160.515625	1529.150024	1128.658325	-8.641977
251.828400	1167.342163	1556.456177	1069.494751	-25.146206
252.205872	1101.352051	1683.885376	1089.974487	-1.953118
252.583313	1110.454102	1736.222412	1146.862427	5.818180
252.960693	1158.240112	1654.303589	1199.199463	8.256877
253.338074	1128.658325	1834.069824	1105.903076	-3.225812
253.715408	1140.035889	1804.488037	1069.494751	-10.616436
254.092682	1176.444214	1890.957764	1051.290649	-17.515911
254.469955	1185.546387	1695.262939	1133.209351	-10.267871
254.847198	1085.423462	1624.721802	1194.648438	20.253164
255.224365	1023.984375	1638.375000	1190.097412	27.037039
255.601563	1101.352051	1629.272949	1178.719727	14.655165
255.978683	1110.454102	1531.425537	1201.474976	21.621628
256.355743	1112.729614	1542.803101	1096.801025	-3.703690
256.732819	1146.862427	1556.456177	1085.423462	-14.999976
257.109894	1101.352051	1604.242188	1103.627563	0.452487
257.486877	1053.566162	1677.058838	1126.382813	11.678830
257.863831	1099.076538	1690.711914	1146.862427	8.076916
258.240753	1112.729614	1686.160889	1078.596802	-5.952381
258.617645	1110.454102	1713.467163	1078.596802	-5.283020
258.994507	1101.352051	1770.355225	1085.423462	-2.380944
259.371307	1137.760376	1918.264038	1153.689087	2.040825
259.748108	1074.045776	1972.876587	1085.423462	1.265832
260.124878	1117.280762	2102.581299	1130.933838	1.385676
260.501617	1108.178589	2396.123291	1051.290649	-4.416955
260.878296	1135.484863	2650.981689	1149.138062	0.900906
261.254944	1117.280762	2644.155273	1144.586914	1.788369
261.631561	1151.413574	2610.022461	1201.474976	3.432133
262.008179	1187.821899	2336.959961	1130.933838	-4.950499
262.384735	1142.311401	2182.224365	1165.066650	2.188188
262.761261	1142.311401	1966.049927	1110.454102	-3.867404
263.137695	1151.413574	1970.601074	1176.444214	3.055545
263.514191	1171.893188	2000.182739	1146.862427	-3.021982
263.890594	1080.872437	1929.641602	1080.872437	0.000000
264.267029	1121.831787	1877.304688	1092.250000	-3.915665
264.643341	1044.463989	1879.580200	1126.382813	9.809273
265.019653	1060.392700	1886.406738	1046.739624	-1.652887
265.395935	1103.627563	1854.549438	1062.668213	-5.454542
265.772217	1158.240112	1815.865601	1128.658325	-4.498272
266.148407	1083.147949	1781.732788	1108.178589	3.583049
266.524597	1096.801025	1959.223389	1137.760376	4.749338
266.900726	1160.515625	1979.703125	1158.240112	-0.277777
267.276855	1190.097412	2072.999512	1178.719727	-1.288669
267.652924	1178.719727	1997.907227	1231.056763	6.388896
268.028992	1112.729614	2109.407715	1126.382813	1.369870
268.404999	1183.270874	2013.835938	1158.240112	-3.013703
268.781006	1124.107300	2200.428711	1174.168701	4.651157
269.156921	1183.270874	2070.723877	1210.577026	3.076912
269.532837	1142.311401	2054.795166	1151.413574	0.997516
269.908661	1210.577026	2091.203613	1128.658325	-9.302320
270.284546	1092.250000	2050.244141	1085.423462	-0.712587
270.660339	1144.586914	2120.785400	1119.556274	-2.564093
271.036133	1126.382813	2164.020264	1115.005249	-1.096487
271.411835	1146.862427	2132.163086	1153.689087	0.692850
271.787537	1101.352051	2232.285889	1105.903076	0.402413
272.163239	1049.015137	2503.072998	1137.760376	6.103281
272.538849	1174.168701	2655.532715	1110.454102	-4.301076
272.914459	1158.240112	2544.032227	1110.454102	-3.448281
273.290070	1149.138062	2468.940186	1137.760376	-0.862075
273.665588	1101.352051	2245.938965	1155.964600	4.771376
274.041046	1094.525513	2377.919189	1165.066650	5.496454
274.416565	1028.535400	2314.204590	1133.209351	8.141593
274.791962	1051.290649	2270.969727	1108.178589	4.664173
275.167389	1155.964600	2227.734863	1174.168701	1.698508
275.542755	1108.178589	2175.397949	1128.658325	1.918981
275.918060	1121.831787	2241.387939	1133.209351	1.016257
276.293365	1121.831787	2280.071777	1108.178589	-1.178788
276.668640	1160.515625	2355.164063	1149.138062	-0.952378
277.043854	1099.076538	2277.796387	1074.045776	-2.123555
277.419037	1144.586914	2402.949951	1128.658325	-1.265818
277.794189	1206.026001	2380.194824	1128.658325	-6.589144
278.169312	1144.586914	2309.653564	1087.698975	-4.882805
278.544373	1167.342163	2264.143311	1155.964600	-1.037341
278.919464	1149.138062	2309.653564	1096.801025	-4.509809
279.294464	1096.801025	2371.092773	1133.209351	2.857142
279.669464	1153.689087	2332.408936	1176.444214	1.930495
280.044403	1053.566162	2366.541748	1137.760376	6.412474
280.419312	1078.596802	2361.990479	1119.556274	3.191497
280.794189	1110.454102	2277.796387	1103.627563	-0.584793
281.169037	1144.586914	2366.541748	1140.035889	-0.372438
281.543854	1158.240112	2334.684326	1201.474976	3.675046
281.918671	1135.484863	2471.215576	1119.556274	-1.192500
282.293365	1126.382813	2575.889648	1160.515625	2.354788
282.668091	1064.943726	2660.083740	1153.689087	5.563484
283.042786	1124.107300	2883.084961	1133.209351	0.517463
283.417419	1142.311401	2778.410889	1208.301514	4.033380
283.792053	1187.821899	2562.236328	1108.178589	-5.794709
284.166595	1119.556274	2689.665527	1124.107300	0.289854
284.541138	1133.209351	2628.226563	1117.280762	-1.065445
284.915619	1096.801025	2614.573486	1180.995239	5.547223
285.290100	1137.760376	2801.166016	1103.627563	-2.051984
285.664520	1137.760376	2739.727051	1099.076538	-2.414772
286.038940	1105.903076	2789.788574	1201.474976	5.675677
286.413300	1144.586914	2828.472412	1094.525513	-2.972970
286.787628	1028.535400	2926.319824	1146.862427	6.235009
287.161896	1174.168701	2953.625977	1140.035889	-1.918159
287.536194	1140.035889	3046.922363	1067.219238	-3.818615
287.910400	1064.943726	2853.503174	1140.035889	4.198472
288.284607	1121.831787	2730.625000	1135.484863	0.848653
288.658752	1121.831787	2662.359375	1121.831787	0.000000
289.032867	1140.035889	2562.236328	1078.596802	-4.320002
289.406921	1080.872437	2678.288086	1190.097412	6.837605
289.781006	1144.586914	2687.390137	1130.933838	-0.884953
290.154999	1135.484863	2716.971924	1140.035889	0.287769
290.529022	1151.413574	2844.401123	1128.658325	-1.344088
290.902954	1078.596802	2867.156250	1144.586914	3.689568
291.276825	1135.484863	3015.064941	1180.995239	2.421305
291.650757	1137.760376	2990.034424	1224.230225	4.668307
292.024597	1112.729614	2960.452637	1085.423462	-1.477827
292.398407	1226.505737	2905.840088	1251.536499	1.490517
292.772156	1137.760376	2769.308838	1190.097412	3.207814
293.145905	1080.872437	2716.971924	1144.586914	3.894291
293.519592	1144.586914	2703.318604	1083.147949	-3.941600
293.893280	1119.556274	2830.747803	1103.627563	-0.930855
294.266907	1094.525513	2912.666504	1187.821899	5.131416
294.640533	1140.035889	2933.146240	1058.117188	-4.568525
295.014069	1137.760376	2990.034424	1140.035889	0.122850
295.387604	1124.107300	3074.228516	1067.219238	-2.917155
295.761078	1105.903076	3147.045166	1096.801025	-0.445929
296.134552	1101.352051	3213.035400	1201.474976	4.741380
296.507996	1158.240112	3096.983887	1149.138062	-0.469482
296.881378	1117.280762	3188.004639	1160.515625	2.087911
297.254730	1169.617676	3235.790527	1121.831787	-2.312773
297.628021	1146.862427	3542.985840	1196.923950	2.089271
298.001282	1151.413574	3565.741211	1235.607788	3.487274
298.374573	1185.546387	3442.863037	1153.689087	-1.411291
298.747803	1167.342163	3447.414063	1203.750488	1.596806
299.121002	1121.831787	3324.535889	1158.240112	1.652892
299.494141	1135.484863	3285.852051	1228.781250	4.338626
299.867188	1130.933838	3126.565674	1176.444214	2.280500
300.240265	1137.760376	3065.126465	1187.821899	2.597406
300.613312	1076.321289	2944.523926	1192.372925	6.211940
300.986328	1112.729614	3033.269287	1210.577026	5.094787
301.359314	1087.698975	2930.870850	1146.862427	3.209872
301.732239	1126.382813	2803.441650	1142.311401	0.949793
302.105103	1058.117188	2974.105713	1174.168701	6.057004
302.477997	1101.352051	2962.728027	1151.413574	2.689490
302.850830	1128.658325	3044.646729	1130.933838	0.118764
303.223602	1196.923950	2889.911377	1192.372925	-0.268816
303.596375	1180.995239	3005.962891	1160.515625	-1.122191
303.969116	1094.525513	2883.084961	1158.240112	3.562342
304.341766	1149.138062	2842.125488	1212.852539	3.763435
304.714478	1128.658325	2807.992676	1299.322388	10.162601
305.087067	1135.484863	2732.900391	1160.515625	1.566954
305.459656	1108.178589	2721.522949	1231.056763	7.616364
305.832214	1176.444214	2844.401123	1249.260864	4.365619
306.204681	1103.627563	2801.166016	1224.230225	7.104561
306.577148	1110.454102	2780.686523	1315.250977	12.261580
306.949646	1155.964600	2714.696289	1331.179688	11.240875
307.322021	1124.107300	2789.788574	1265.189575	8.469944
307.694397	1171.893188	2826.196777	1322.077637	9.078409
308.066742	1137.760376	2762.482178	1347.108276	12.885154
308.439026	1130.933838	2939.972900	1365.312500	12.955976
308.811279	1105.903076	3051.473389	1419.924927	16.140350
309.183502	1137.760376	3108.361328	1390.343262	12.817556
309.555695	1180.995239	3058.300049	1517.772339	17.939394
309.927887	1069.494751	3046.922363	1429.027100	18.181822
310.299988	1124.107300	3106.085938	1403.996338	14.121698
310.672058	1158.240112	3144.769775	1558.731689	20.160362
311.044128	1140.035889	3169.800537	1579.211426	21.636772
311.416168	1171.893188	3160.698486	1510.945801	17.048054
311.788147	1174.168701	3231.239502	1524.598877	17.035397
312.160065	1074.045776	3206.208740	1538.252075	21.771614
312.531982	1112.729614	3172.075928	1626.997314	24.972378
312.903870	1196.923950	3010.513916	1665.681274	25.846930
313.275696	1128.658325	2939.972900	1565.558350	24.120604
313.647491	1178.719727	3053.749023	1579.211426	21.359224
314.019318	1105.903076	3005.962891	1576.935913	24.790422
314.391022	1115.005249	2992.309814	1608.793213	26.303028
314.762726	1146.862427	2992.309814	1483.639526	18.249077
315.134369	1010.331238	3188.004639	1631.548462	28.526649
315.505981	1099.076538	3135.667725	1595.140137	24.357544
315.877594	1124.107300	3331.362549	1656.579102	24.123707
316.249146	1155.964600	3167.524902	1529.150024	18.552038
316.620636	1185.546387	3005.962891	1556.456177	20.374996
316.992157	1162.791138	3042.371338	1565.558350	21.428574
317.363586	1165.066650	2933.146240	1499.568237	18.918921
317.735016	1083.147949	2892.187012	1629.272949	30.188679
318.106354	1105.903076	2901.289063	1522.323364	23.193914
