Jaz Data File
++++++++++++++++++++++++++++++++++++
Date: Wed Feb 07 06:46:16 2024
User: jaz
Dark Spectrum Present: Yes
Reference Spectrum Present: Yes
Processed Spectrum Present: Yes
Spectrometers: JAZA3692
Integration Time (usec): 47000 (JAZA3692)
Spectra Averaged: 1 (JAZA3692)
Boxcar Smoothing: 0 (JAZA3692)
Correct for Electrical Dark: No (JAZA3692)
Strobe/Lamp Enabled: Yes (JAZA3692)
Correct for Detector Non-linearity: No (JAZA3692)
Correct for Stray Light: No (JAZA3692)
Number of Pixels in Processed Spectrum: 2048
>>>>>Begin Processed Spectral Data<<<<<
W	D	R	S	P
190.244385	0.000000	0.000000	0.000000	0.000000
190.627136	0.000000	0.000000	0.000000	0.000000
191.009842	1044.463989	1105.903076	992.127075	-85.185043
191.392532	964.820801	1023.984375	1021.708862	96.153862
191.775177	1033.086426	971.647400	1087.698975	-88.889023
192.157791	1092.250000	1023.984375	1037.637451	80.000069
192.540390	1117.280762	1112.729614	1021.708862	2099.951660
192.922943	1119.556274	1058.117188	1076.321289	70.370491
193.305481	1064.943726	1151.413574	1103.627563	44.736794
193.687958	1089.974487	1037.637451	1078.596802	21.739262
194.070419	1162.791138	1089.974487	1044.463989	162.500122
194.452866	1060.392700	1130.933838	1083.147949	32.258125
194.835251	1115.005249	1117.280762	989.851563	-5500.021484
195.217621	1049.015137	1049.015137	1064.943726	0.000000
195.599960	1033.086426	1105.903076	1108.178589	103.124992
195.982254	1158.240112	1094.525513	1112.729614	71.428680
196.364517	1094.525513	1144.586914	1053.566162	-81.818230
196.746750	1101.352051	1167.342163	1044.463989	-86.206947
197.128952	1119.556274	1060.392700	1092.250000	46.153862
197.511139	1137.760376	1055.841675	1089.974487	58.333309
197.893280	1101.352051	1021.708862	1099.076538	2.857134
198.275391	1117.280762	1076.321289	1067.219238	122.222092
198.657471	1128.658325	1069.494751	1064.943726	107.692276
199.039520	989.851563	1108.178589	1076.321289	73.076904
199.421539	1089.974487	1087.698975	1064.943726	1100.005371
199.803513	1099.076538	1039.912964	1096.801025	3.846138
200.185471	1017.157776	1140.035889	1092.250000	61.111149
200.567383	1053.566162	1124.107300	1128.658325	106.451591
200.949265	1087.698975	1094.525513	1130.933838	633.335144
201.331131	1042.188477	1128.658325	1085.423462	50.000072
201.712967	1049.015137	1069.494751	1060.392700	55.555557
202.094742	1105.903076	1115.005249	1087.698975	-199.997314
202.476517	1128.658325	1135.484863	996.678101	-1933.340454
202.858231	1128.658325	1055.841675	1112.729614	21.875093
203.239944	1071.770264	1144.586914	1069.494751	-3.124990
203.621582	1137.760376	1026.259888	1042.188477	85.714333
204.003235	1108.178589	1037.637451	1092.250000	22.580566
204.384827	1060.392700	1053.566162	1074.045776	-200.000000
204.766388	1055.841675	1142.311401	1064.943726	10.526286
205.147934	1092.250000	1105.903076	1060.392700	-233.334229
205.529449	1064.943726	1162.791138	1060.392700	-4.651145
205.910904	1140.035889	1124.107300	1010.331238	814.288391
206.292343	1037.637451	1151.413574	1064.943726	24.000004
206.673767	1044.463989	1112.729614	1060.392700	23.333429
207.055115	1044.463989	1137.760376	1080.872437	39.024498
207.436462	1105.903076	1201.474976	1110.454102	4.761887
207.817780	1078.596802	1119.556274	1083.147949	11.111343
208.199051	1142.311401	1089.974487	1042.188477	191.304596
208.580307	1076.321289	1140.035889	1051.290649	-39.285564
208.961517	1094.525513	1064.943726	1030.810913	215.384552
209.342712	1060.392700	1151.413574	1087.698975	30.000013
209.723846	1074.045776	1112.729614	1117.280762	111.764984
210.104965	1053.566162	1062.668213	1074.045776	225.000000
210.486069	1074.045776	1096.801025	1074.045776	0.000000
210.867111	1074.045776	1117.280762	1085.423462	26.315924
211.248123	1085.423462	1112.729614	1074.045776	-41.667114
211.629120	1069.494751	1146.862427	987.576050	-105.882332
212.010071	980.749451	1094.525513	1128.658325	130.000000
212.390991	1026.259888	1119.556274	1026.259888	0.000000
212.771881	1058.117188	1171.893188	1126.382813	60.000023
213.152756	1062.668213	1046.739624	1087.698975	-157.143631
213.533569	998.953613	1085.423462	1087.698975	102.631569
213.914368	1030.810913	1087.698975	1058.117188	48.000008
214.295135	1067.219238	1108.178589	1089.974487	55.555687
214.675858	1087.698975	1126.382813	1115.005249	70.588326
215.056549	1103.627563	1151.413574	1069.494751	-71.428459
215.437225	1010.331238	1103.627563	1060.392700	53.658558
215.817841	1101.352051	1080.872437	1151.413574	-244.445633
216.198441	1019.433350	1142.311401	1135.484863	94.444458
216.579025	1119.556274	1074.045776	1069.494751	109.999947
216.959549	1112.729614	1112.729614	1074.045776	0.000000
217.340057	1021.708862	1115.005249	1085.423462	68.292679
217.720535	1105.903076	1028.535400	1074.045776	41.176498
218.100967	1083.147949	1060.392700	1053.566162	129.999832
218.481369	1096.801025	1049.015137	1042.188477	114.285934
218.861740	1019.433350	1067.219238	1014.882263	-9.523913
219.242065	1060.392700	1103.627563	1030.810913	-68.421143
219.622391	1064.943726	1089.974487	1071.770264	27.272594
220.002670	1055.841675	1137.760376	1087.698975	38.888924
220.382919	1092.250000	1128.658325	1094.525513	6.249979
220.763123	1049.015137	1187.821899	1019.433350	-21.311489
221.143295	1028.535400	1121.831787	1105.903076	82.926765
221.523453	1037.637451	1110.454102	1023.984375	-18.749937
221.903549	1135.484863	1087.698975	1010.331238	261.904999
222.283630	1096.801025	1055.841675	1076.321289	50.000149
222.663696	1085.423462	1051.290649	1046.739624	113.333282
223.043701	1144.586914	1119.556274	1074.045776	281.819153
223.423676	1096.801025	1112.729614	1023.984375	-457.144379
223.803635	1026.259888	1071.770264	1074.045776	104.999985
224.183548	1046.739624	1117.280762	1039.912964	-9.677559
224.563431	1083.147949	1096.801025	1030.810913	-383.335114
224.943283	1087.698975	1108.178589	1019.433350	-333.334534
225.323105	1130.933838	1105.903076	1053.566162	309.090363
225.702881	1023.984375	1096.801025	1110.454102	118.749939
226.082642	1030.810913	1135.484863	1108.178589	73.913017
226.462357	1042.188477	1178.719727	1062.668213	15.000036
226.842041	1083.147949	1099.076538	1089.974487	42.857143
227.221695	1133.209351	1092.250000	1067.219238	161.111221
227.601318	1062.668213	1133.209351	998.953613	-90.322617
227.980911	960.269775	1187.821899	1074.045776	49.999973
228.360474	1092.250000	1187.821899	1119.556274	28.571447
228.739990	1033.086426	1167.342163	1012.606750	-15.254228
229.119476	1124.107300	1240.158813	1099.076538	-21.568665
229.498932	1092.250000	1265.189575	1033.086426	-34.210548
229.878372	1105.903076	1299.322388	1026.259888	-41.176441
230.257736	1080.872437	1299.322388	1030.810913	-22.916702
230.637115	998.953613	1363.036987	1060.392700	16.875006
231.016449	1071.770264	1374.414551	1074.045776	0.751877
231.395737	1089.974487	1385.792114	1046.739624	-14.615377
231.774994	1067.219238	1235.607788	1074.045776	4.054039
232.154221	1023.984375	1267.465088	1085.423462	25.233656
232.533417	1030.810913	1242.434326	1080.872437	23.655947
232.912582	1115.005249	1246.985352	1099.076538	-12.069024
233.291702	1026.259888	1274.291626	1035.361938	3.669712
233.670792	1103.627563	1281.118164	1049.015137	-30.769194
234.049866	1121.831787	1258.363037	1039.912964	-60.000053
234.428894	1001.229126	1237.883301	1042.188477	17.307682
234.807892	1119.556274	1253.812012	1130.933838	8.474545
235.186874	1076.321289	1319.802124	1058.117188	-7.476605
235.565781	1083.147949	1308.424438	1033.086426	-22.222258
235.944687	1003.504700	1363.036987	1115.005249	31.012667
236.323547	1083.147949	1269.740601	1049.015137	-18.292688
236.702377	1083.147949	1317.526489	1046.739624	-15.533984
237.081177	1103.627563	1367.588013	1067.219238	-13.793098
237.459946	1060.392700	1338.006226	1042.188477	-6.557398
237.838669	1069.494751	1315.250977	1030.810913	-15.740736
238.217361	1046.739624	1237.883301	1049.015137	1.190472
238.596039	1042.188477	1281.118164	1105.903076	26.666674
238.974670	1067.219238	1340.281738	1071.770264	1.666661
239.353271	1039.912964	1235.607788	1126.382813	44.186069
239.731842	1096.801025	1363.036987	1076.321289	-7.692325
240.110367	1121.831787	1196.923950	1089.974487	-42.424267
240.488876	1044.463989	1392.618774	1023.984375	-5.882330
240.867340	1028.535400	1356.210449	1026.259888	-0.694442
241.245789	1105.903076	1479.088501	1028.535400	-20.731699
241.624176	1115.005249	1485.915039	1046.739624	-18.404913
242.002548	1069.494751	1479.088501	1053.566162	-3.888875
242.380890	998.953613	1558.731689	1055.841675	10.162610
242.759186	1076.321289	1642.926025	1042.188477	-6.024096
243.137451	1010.331238	1847.722900	1023.984375	1.630436
243.515686	1035.361938	1890.957764	1049.015137	1.595753
243.893890	1069.494751	1909.161987	1012.606750	-6.775065
244.272049	1028.535400	1888.682251	1096.801025	7.936508
244.650192	1058.117188	1802.212524	1080.872437	3.058109
245.028290	1023.984375	1704.365112	1115.005249	13.377933
245.406357	1060.392700	1686.160889	1108.178589	7.636356
245.784393	1005.780212	1747.599976	1128.658325	16.564417
246.162384	1035.361938	1617.895264	1062.668213	4.687504
246.540359	1026.259888	1649.752563	1128.658325	16.423359
246.918289	1078.596802	1824.967651	1135.484863	7.621956
247.296204	1096.801025	1988.805176	1053.566162	-4.846935
247.674057	1178.719727	2220.908203	1060.392700	-11.353707
248.051895	1137.760376	2521.277100	1096.801025	-2.960524
248.429703	1062.668213	2598.644775	1108.178589	2.962960
248.807465	1099.076538	2471.215576	1028.535400	-5.140961
249.185196	1096.801025	2471.215576	1108.178589	0.827812
249.562897	1092.250000	2232.285889	1069.494751	-1.996012
249.940567	1126.382813	2164.020264	1071.770264	-5.263163
250.318192	1112.729614	1959.223389	1058.117188	-6.451604
250.695801	1030.810913	1879.580200	1042.188477	1.340478
251.073349	1028.535400	1840.896362	1064.943726	4.481791
251.450882	1092.250000	1793.110352	1085.423462	-0.974023
251.828400	1099.076538	1752.151001	1085.423462	-2.090585
252.205872	1087.698975	1772.630737	1053.566162	-4.983389
252.583313	1053.566162	1845.447388	1108.178589	6.896543
252.960693	1028.535400	1947.845825	1092.250000	6.930695
253.338074	1092.250000	2016.111450	1044.463989	-5.172422
253.715408	1117.280762	1966.049927	1021.708862	-11.260057
254.092682	1037.637451	1872.753662	1076.321289	4.632150
254.469955	1076.321289	1806.763550	1085.423462	1.246118
254.847198	1017.157776	1686.160889	1017.157776	0.000000
255.224365	1099.076538	1747.599976	1096.801025	-0.350876
255.601563	1085.423462	1736.222412	1071.770264	-2.097913
255.978683	1103.627563	1708.916138	1060.392700	-7.142851
256.355743	1033.086426	1765.804199	1033.086426	0.000000
256.732819	1078.596802	1743.048950	1115.005249	5.479469
257.109894	1023.984375	1795.385864	1085.423462	7.964606
257.486877	1105.903076	1745.324463	1071.770264	-5.338078
257.863831	1083.147949	1799.937012	1069.494751	-1.904772
258.240753	1019.433350	1929.641602	1101.352051	8.999995
258.617645	1096.801025	1975.152100	1078.596802	-2.072545
258.994507	1099.076538	2047.968750	1094.525513	-0.479615
259.371307	1089.974487	2220.908203	1101.352051	1.006033
259.748108	1089.974487	2200.428711	1096.801025	0.614752
260.124878	1080.872437	2616.848877	1092.250000	0.740738
260.501617	1085.423462	2928.595215	1069.494751	-0.864201
260.878296	1064.943726	3208.484375	1124.107300	2.760087
261.254944	1119.556274	3390.525879	1085.423462	-1.503006
261.631561	1058.117188	3203.933350	1033.086426	-1.166491
262.008179	1096.801025	2876.258301	1055.841675	-2.301789
262.384735	1058.117188	2523.552490	1085.423462	1.863356
262.761261	1076.321289	2298.276123	1051.290649	-2.048409
263.137695	1083.147949	2218.632813	1044.463989	-3.406823
263.514191	1071.770264	2189.051025	1103.627563	2.851325
263.890594	1012.606750	2168.571289	1160.515625	12.795278
264.267029	1074.045776	2177.673340	1112.729614	3.505153
264.643341	1117.280762	2202.704102	1085.423462	-2.935011
265.019653	1062.668213	2145.816162	1128.658325	6.092438
265.395935	1083.147949	2175.397949	1096.801025	1.249995
265.772217	985.300537	2125.336426	1058.117188	6.387224
266.148407	1042.188477	2052.519775	1087.698975	4.504512
266.524597	1085.423462	2236.836914	1028.535400	-4.940715
266.900726	1062.668213	2243.663574	1165.066650	8.670520
267.276855	1085.423462	2339.235352	1108.178589	1.814876
267.652924	1083.147949	2446.184814	1162.791138	5.843069
268.028992	1028.535400	2462.113525	1076.321289	3.333330
268.404999	1094.525513	2466.664551	1053.566162	-2.985073
268.781006	1128.658325	2361.990479	1064.943726	-5.166054
269.156921	985.300537	2268.694336	1135.484863	11.702124
269.532837	1105.903076	2336.959961	1105.903076	0.000000
269.908661	1010.331238	2459.837891	1055.841675	3.139719
270.284546	1053.566162	2380.194824	1074.045776	1.543734
270.660339	1039.912964	2491.695313	1058.117188	1.253922
271.036133	1071.770264	2484.868652	1074.045776	0.161030
271.411835	1076.321289	2573.614014	1137.760376	4.103345
271.787537	1035.361938	2853.503174	1026.259888	-0.500624
272.163239	1030.810913	2965.003662	1069.494751	1.999999
272.538849	1046.739624	3090.157227	1076.321289	1.447656
272.914459	1010.331238	3144.769775	1074.045776	2.985073
273.290070	1092.250000	2944.523926	1071.770264	-1.105654
273.665588	1130.933838	2919.493164	1151.413574	1.145041
274.041046	1055.841675	2949.074951	1121.831787	3.485577
274.416565	1044.463989	2798.890625	1078.596802	1.945525
274.791962	1071.770264	2751.104736	1124.107300	3.116534
275.167389	1092.250000	2687.390137	1167.342163	4.707559
275.542755	1028.535400	2682.839111	1039.912964	0.687755
275.918060	1014.882263	2689.665527	1094.525513	4.755436
276.293365	1053.566162	2698.767578	1133.209351	4.840939
276.668640	1076.321289	2619.124512	1144.586914	4.424778
277.043854	1094.525513	2655.532715	1149.138062	3.498546
277.419037	1092.250000	2757.931152	1144.586914	3.142073
277.794189	1008.055725	2735.176025	1010.331238	0.131752
278.169312	1087.698975	2757.931152	1044.463989	-2.588561
278.544373	1014.882263	2776.135498	1112.729614	5.555553
278.919464	1051.290649	2735.176025	1101.352051	2.972970
279.294464	1124.107300	2803.441650	1124.107300	0.000000
279.669464	1071.770264	2771.584229	1108.178589	2.141901
280.044403	1014.882263	2801.166016	1078.596802	3.566877
280.419312	1010.331238	2810.268311	1108.178589	5.436154
280.794189	1087.698975	2848.952148	1042.188477	-2.583984
281.169037	1069.494751	2990.034424	1110.454102	2.132700
281.543854	1071.770264	3008.238525	1180.995239	5.640422
281.918671	1110.454102	3076.504150	1140.035889	1.504630
282.293365	1067.219238	3224.413086	1174.168701	4.957805
282.668091	1062.668213	3210.759766	1055.841675	-0.317795
283.042786	1112.729614	3379.148438	1089.974487	-1.004012
283.417419	1176.444214	3470.169189	1026.259888	-6.547616
283.792053	1105.903076	3279.025391	1135.484863	1.361257
284.166595	1080.872437	3192.555664	1087.698975	0.323275
284.541138	1033.086426	3165.249512	1124.107300	4.268945
284.915619	1021.708862	3115.187988	1083.147949	2.934784
285.290100	1169.617676	3358.668701	1087.698975	-3.742202
285.664520	1017.157776	3390.525879	1174.168701	6.615532
286.038940	1071.770264	3465.618164	1149.138062	3.231943
286.413300	1042.188477	3476.995850	1103.627563	2.523365
286.787628	1058.117188	3679.517090	1071.770264	0.520831
287.161896	1133.209351	3843.354736	1110.454102	-0.839632
287.536194	1012.606750	3718.200928	1119.556274	3.952903
287.910400	1060.392700	3702.272461	1146.862427	3.273038
288.284607	1103.627563	3379.148438	1149.138062	2.000003
288.658752	1017.157776	3306.331787	1085.423462	2.982110
289.032867	1042.188477	3210.759766	1140.035889	4.512068
289.406921	1085.423462	3356.393066	1026.259888	-2.605212
289.781006	1030.810913	3372.321777	1135.484863	4.470360
290.154999	1035.361938	3269.923340	1103.627563	3.054990
290.529022	1087.698975	3520.230713	1092.250000	0.187090
290.902954	1101.352051	3690.894775	1071.770264	-1.142356
291.276825	1074.045776	3843.354736	1053.566162	-0.739521
291.650757	1085.423462	3877.487549	1085.423462	0.000000
292.024597	1101.352051	3922.997803	1074.045776	-0.967743
292.398407	1103.627563	3597.598389	1014.882263	-3.558394
292.772156	1108.178589	3545.261475	1051.290649	-2.334264
293.145905	1058.117188	3404.179199	1115.005249	2.424832
293.519592	1058.117188	3395.077148	1103.627563	1.947418
293.893280	1196.923950	3527.057129	1183.270874	-0.585935
294.266907	1076.321289	3595.322754	1144.586914	2.710027
294.640533	989.851563	3638.557861	1119.556274	4.896908
295.014069	978.473938	3918.446777	1053.566162	2.554181
295.387604	1128.658325	4032.222900	1130.933838	0.078370
295.761078	1060.392700	4004.916504	1149.138062	3.013912
296.134552	1135.484863	4041.324951	1064.943726	-2.427564
296.507996	1062.668213	4050.427002	1085.423462	0.761616
296.881378	1051.290649	4045.875977	1089.974487	1.291793
297.254730	1076.321289	4289.356934	1128.658325	1.628897
297.628021	962.545288	4607.929688	1071.770264	2.996254
298.001282	1058.117188	4612.480469	1112.729614	1.536490
298.374573	1026.259888	4805.899902	1117.280762	2.408189
298.747803	1101.352051	4644.337891	1128.658325	0.770714
299.121002	1042.188477	4323.489746	1135.484863	2.843274
299.494141	1119.556274	4143.723145	1094.525513	-0.827691
299.867188	1074.045776	4107.314941	1069.494751	-0.150037
300.240265	1078.596802	3941.202148	1137.760376	2.066774
300.613312	1071.770264	3820.599365	1078.596802	0.248343
300.986328	1089.974487	3818.323975	1094.525513	0.166805
301.359314	1087.698975	3704.547852	1105.903076	0.695650
301.732239	1085.423462	3734.129639	1053.566162	-1.202749
302.105103	1014.882263	3781.915527	1128.658325	4.111843
302.477997	1119.556274	3706.823486	1103.627563	-0.615658
302.850830	1094.525513	3761.435791	1126.382813	1.194540
303.223602	1053.566162	3806.946289	1185.546387	4.793389
303.596375	1042.188477	3831.977051	1160.515625	4.241438
303.969116	1094.525513	3649.935303	1149.138062	2.137135
304.341766	1099.076538	3552.087891	1105.903076	0.278292
304.714478	1089.974487	3536.159424	1126.382813	1.488372
305.087067	1089.974487	3533.883789	1117.280762	1.117319
305.459656	1069.494751	3645.384277	1192.372925	4.770320
305.832214	1076.321289	3563.465576	1162.791138	3.476672
306.204681	1162.791138	3554.363525	1149.138062	-0.570883
306.577148	1030.810913	3506.577637	1297.046875	10.753677
306.949646	1085.423462	3713.649902	1265.189575	6.839826
307.322021	1074.045776	3668.139648	1187.821899	4.385968
307.694397	1039.912964	3579.394287	1244.709839	8.064515
308.066742	1069.494751	3595.322754	1340.281738	10.720721
308.439026	992.127075	3818.323975	1385.792114	13.929145
308.811279	1146.862427	3761.435791	1451.782227	11.662316
309.183502	1019.433350	3948.028564	1435.853638	14.219114
309.555695	983.024963	3954.855225	1406.271851	14.241960
309.927887	1033.086426	3991.263428	1392.618774	12.153849
310.299988	1121.831787	4070.906738	1485.915039	12.345676
310.672058	1103.627563	4064.080078	1526.874512	14.296698
311.044128	1069.494751	4239.295410	1483.639526	13.065325
311.416168	1092.250000	4255.224121	1517.772339	13.453235
311.788147	1085.423462	4159.651855	1526.874512	14.359735
312.160065	1124.107300	4089.110840	1426.751587	10.207215
312.531982	1096.801025	4123.243652	1495.017212	13.157896
312.903870	1089.974487	3954.855225	1501.843750	14.376489
313.275696	1019.433350	3893.416016	1460.884399	15.360254
313.647491	1037.637451	4004.916504	1551.905151	17.331289
314.019318	1153.689087	3763.711426	1522.323364	14.123797
314.391022	1044.463989	3765.986816	1465.435425	15.468230
314.762726	1046.739624	3913.895752	1483.639526	15.238091
315.134369	1074.045776	4023.120850	1520.047852	15.123455
315.505981	1089.974487	4287.081055	1549.629639	14.377224
315.877594	1037.637451	4321.213867	1549.629639	15.592516
316.249146	1099.076538	4127.794922	1572.384888	15.627348
316.620636	1030.810913	3927.548828	1556.456177	18.146111
316.992157	1105.903076	3809.221924	1513.221313	15.067340
317.363586	1035.361938	3836.528076	1517.772339	17.221771
317.735016	1089.974487	3690.894775	1426.751587	12.948381
318.106354	1055.841675	3781.915527	1451.782227	14.524205
318.477722	1044.463989	3784.191162	1479.088501	15.863789
318.849060	1074.045776	3788.742188	1542.803101	17.267395
