Jaz Data File
++++++++++++++++++++++++++++++++++++
Date: Wed Feb 07 06:52:13 2024
User: jaz
Dark Spectrum Present: Yes
Reference Spectrum Present: Yes
Processed Spectrum Present: Yes
Spectrometers: JAZA3692
Integration Time (usec): 42900 (JAZA3692)
Spectra Averaged: 1 (JAZA3692)
Boxcar Smoothing: 0 (JAZA3692)
Correct for Electrical Dark: No (JAZA3692)
Strobe/Lamp Enabled: Yes (JAZA3692)
Correct for Detector Non-linearity: No (JAZA3692)
Correct for Stray Light: No (JAZA3692)
Number of Pixels in Processed Spectrum: 2048
>>>>>Begin Processed Spectral Data<<<<<
W	D	R	S	P
190.244385	0.000000	0.000000	0.000000	0.000000
190.627136	0.000000	0.000000	0.000000	0.000000
191.009842	907.932800	948.892151	910.208313	5.555539
191.392532	985.300537	1028.535400	907.932800	-178.947571
191.775177	917.034912	967.096313	905.657288	-22.727339
192.157791	989.851563	903.381775	907.932800	94.736862
192.540390	992.127075	917.034912	976.198425	21.212133
192.922943	905.657288	1001.229126	942.065613	38.095245
193.305481	1003.504700	1035.361938	957.994263	-142.857437
193.687958	1010.331238	1023.984375	962.545288	-349.999786
194.070419	948.892151	1019.433350	917.034912	-45.161182
194.452866	1064.943726	928.412476	919.310425	106.666641
194.835251	1030.810913	1012.606750	951.167725	437.499878
195.217621	1008.055725	976.198425	951.167725	178.571320
195.599960	1039.912964	1003.504700	953.443237	237.500275
195.982254	1080.872437	976.198425	960.269775	115.217384
196.364517	1033.086426	971.647400	983.024963	81.481537
196.746750	962.545288	1003.504700	1001.229126	94.444321
197.128952	1014.882263	994.402588	1012.606750	11.111078
197.511139	1067.219238	1001.229126	973.922913	141.379257
197.893280	992.127075	1010.331238	985.300537	-37.499874
198.275391	998.953613	935.239075	1005.780212	-10.714351
198.657471	1001.229126	1003.504700	955.718750	-1999.951660
199.039520	1049.015137	967.096313	919.310425	158.333221
199.421539	948.892151	1037.637451	946.616638	-2.564094
199.803513	967.096313	973.922913	992.127075	366.665192
200.185471	1001.229126	948.892151	1023.984375	-43.478340
200.567383	1010.331238	1010.331238	969.371887	0.000000
200.949265	989.851563	989.851563	951.167725	0.000000
201.331131	930.687988	1044.463989	946.616638	14.000009
201.712967	946.616638	1037.637451	985.300537	42.500057
202.094742	976.198425	1030.810913	928.412476	-87.500038
202.476517	980.749451	1026.259888	953.443237	-59.999893
202.858231	957.994263	1055.841675	955.718750	-2.325573
203.239944	969.371887	994.402588	939.790100	-118.182014
203.621582	955.718750	935.239075	919.310425	177.777847
204.003235	937.514587	969.371887	967.096313	92.856979
204.384827	935.239075	1019.433350	969.371887	40.540539
204.766388	937.514587	1017.157776	912.483826	-31.428629
205.147934	985.300537	1039.912964	985.300537	0.000000
205.529449	1021.708862	953.443237	914.759338	156.666733
205.910904	976.198425	1044.463989	969.371887	-9.999973
206.292343	948.892151	1019.433350	973.922913	35.483891
206.673767	930.687988	992.127075	994.402588	103.703690
207.055115	998.953613	980.749451	960.269775	212.499954
207.436462	1010.331238	1012.606750	1003.504700	-300.000000
207.817780	1014.882263	1069.494751	969.371887	-83.333275
208.199051	967.096313	976.198425	973.922913	75.000168
208.580307	994.402588	983.024963	910.208313	739.998718
208.961517	928.412476	971.647400	907.932800	-47.368362
209.342712	983.024963	987.576050	892.004150	-1999.979858
209.723846	976.198425	989.851563	973.922913	-16.666592
210.104965	1096.801025	1069.494751	878.351013	799.999329
210.486069	955.718750	1074.045776	996.678101	34.615379
210.867111	985.300537	1044.463989	1044.463989	100.000000
211.248123	962.545288	1046.739624	903.381775	-70.270180
211.629120	962.545288	998.953613	953.443237	-24.999916
212.010071	994.402588	1044.463989	910.208313	-168.182022
212.390991	951.167725	1026.259888	917.034912	-45.454559
212.771881	983.024963	923.861450	944.341125	65.384621
213.152756	962.545288	992.127075	983.024963	69.230690
213.533569	962.545288	944.341125	960.269775	12.499958
213.914368	930.687988	960.269775	989.851563	200.000000
214.295135	989.851563	985.300537	937.514587	1150.004028
214.675858	989.851563	928.412476	983.024963	11.111166
215.056549	978.473938	992.127075	1017.157776	283.332947
215.437225	1019.433350	978.473938	994.402588	61.111137
215.817841	978.473938	1071.770264	951.167725	-29.268263
216.198441	1010.331238	985.300537	1001.229126	36.363792
216.579025	928.412476	1028.535400	1014.882263	86.363625
216.959549	1053.566162	1017.157776	983.024963	193.749863
217.340057	973.922913	1012.606750	935.239075	-100.000000
217.720535	1003.504700	1008.055725	1030.810913	600.001343
218.100967	1003.504700	1001.229126	1030.810913	-1199.970459
218.481369	994.402588	987.576050	978.473938	233.334229
218.861740	1003.504700	1067.219238	910.208313	-146.428726
219.242065	955.718750	978.473938	983.024963	119.999947
219.622391	969.371887	1019.433350	948.892151	-40.909184
220.002670	994.402588	1012.606750	976.198425	-100.000000
220.382919	976.198425	962.545288	928.412476	349.999786
220.763123	932.963501	996.678101	951.167725	28.571510
221.143295	937.514587	1014.882263	892.004150	-58.823582
221.523453	992.127075	1005.780212	905.657288	-633.332764
221.903549	957.994263	1003.504700	971.647400	30.000013
222.283630	1046.739624	1023.984375	1028.535400	80.000107
222.663696	976.198425	1035.361938	1003.504700	46.153908
223.043701	923.861450	978.473938	992.127075	125.000031
223.423676	978.473938	1033.086426	987.576050	16.666723
223.803635	967.096313	1012.606750	939.790100	-59.999893
224.183548	928.412476	996.678101	969.371887	60.000053
224.563431	962.545288	1014.882263	944.341125	-34.782604
224.943283	946.616638	1008.055725	944.341125	-3.703689
225.323105	937.514587	1058.117188	960.269775	18.867908
225.702881	1008.055725	1033.086426	948.892151	-236.364029
226.082642	919.310425	1026.259888	1053.566162	125.531944
226.462357	1017.157776	1035.361938	976.198425	-224.999924
226.842041	998.953613	967.096313	964.820801	107.142830
227.221695	926.136963	1019.433350	948.892151	24.390213
227.601318	937.514587	1021.708862	1026.259888	105.405388
227.980911	989.851563	996.678101	1001.229126	166.666672
228.360474	976.198425	1021.708862	1012.606750	79.999947
228.739990	1028.535400	1135.484863	955.718750	-68.085098
229.119476	971.647400	1124.107300	962.545288	-5.970168
229.498932	1005.780212	1130.933838	944.341125	-49.090935
229.878372	996.678101	1187.821899	1042.188477	23.809496
230.257736	1008.055725	1212.852539	1005.780212	-1.111107
230.637115	980.749451	1203.750488	885.177612	-42.857128
231.016449	992.127075	1128.658325	912.483826	-58.333347
231.395737	903.381775	1121.831787	987.576050	38.541668
231.774994	937.514587	1014.882263	973.922913	47.058834
232.154221	964.820801	1146.862427	944.341125	-11.249996
232.533417	937.514587	1146.862427	1062.668213	59.782619
232.912582	917.034912	1167.342163	896.555176	-8.181839
233.291702	928.412476	1115.005249	917.034912	-6.097537
233.670792	996.678101	1119.556274	976.198425	-16.666651
234.049866	907.932800	1133.209351	1030.810913	54.545452
234.428894	957.994263	1176.444214	921.585938	-16.666666
234.807892	973.922913	1183.270874	955.718750	-8.695648
235.186874	985.300537	1133.209351	1005.780212	13.846149
235.565781	967.096313	1212.852539	905.657288	-24.999987
235.944687	1028.535400	1185.546387	1035.361938	4.347809
236.323547	948.892151	1256.087524	989.851563	13.333343
236.702377	926.136963	1201.474976	980.749451	19.834707
237.081177	980.749451	1174.168701	1003.504700	11.764729
237.459946	980.749451	1190.097412	1014.882263	16.304344
237.838669	942.065613	1165.066650	942.065613	0.000000
238.217361	928.412476	1256.087524	1001.229126	22.222214
238.596039	994.402588	1208.301514	896.555176	-45.744694
238.974670	942.065613	1208.301514	939.790100	-0.854698
239.353271	957.994263	1224.230225	948.892151	-3.418814
239.731842	980.749451	1240.158813	989.851563	3.508783
240.110367	919.310425	1158.240112	985.300537	27.619051
240.488876	928.412476	1237.883301	996.678101	22.058825
240.867340	964.820801	1253.812012	944.341125	-7.086608
241.245789	1019.433350	1258.363037	901.106262	-49.523811
241.624176	969.371887	1228.781250	939.790100	-11.403516
242.002548	957.994263	1467.710938	939.790100	-3.571428
242.380890	1023.984375	1495.017212	946.616638	-16.425125
242.759186	1019.433350	1533.701050	919.310425	-19.469028
243.137451	932.963501	1592.864502	994.402588	9.310349
243.515686	971.647400	1658.854614	985.300537	1.986757
243.893890	964.820801	1658.854614	944.341125	-2.950818
244.272049	967.096313	1517.772339	992.127075	4.545461
244.650192	889.728638	1606.517700	1005.780212	16.190477
245.028290	905.657288	1506.394775	1037.637451	21.969690
245.406357	960.269775	1492.741699	1012.606750	9.829058
245.784393	955.718750	1447.231201	914.759338	-8.333342
246.162384	907.932800	1501.843750	957.994263	8.429119
246.540359	948.892151	1592.864502	985.300537	5.653719
246.918289	955.718750	1615.619751	980.749451	3.793099
247.296204	989.851563	1756.702026	1042.188477	6.824918
247.674057	973.922913	2066.172852	914.759338	-5.416670
248.051895	976.198425	2243.663574	1010.331238	2.692998
248.429703	948.892151	2352.888428	1023.984375	5.348463
248.807465	1010.331238	2336.959961	1044.463989	2.572894
249.185196	1019.433350	2095.754639	955.718750	-5.919663
249.562897	964.820801	1893.233276	957.994263	-0.735291
249.940567	1001.229126	1840.896362	964.820801	-4.336042
250.318192	1021.708862	1779.457275	901.106262	-15.915915
250.695801	994.402588	1649.752563	978.473938	-2.430556
251.073349	980.749451	1579.211426	996.678101	2.661598
251.450882	955.718750	1501.843750	921.585938	-6.250000
251.828400	1053.566162	1524.598877	980.749451	-15.458950
252.205872	987.576050	1565.558350	937.514587	-8.661418
252.583313	926.136963	1636.099487	1023.984375	13.782053
252.960693	980.749451	1722.569214	964.820801	-2.147240
253.338074	955.718750	1913.713013	901.106262	-5.700711
253.715408	1019.433350	1845.447388	917.034912	-12.396694
254.092682	923.861450	1665.681274	980.749451	7.668709
254.469955	989.851563	1654.303589	1005.780212	2.397261
254.847198	937.514587	1574.660400	1005.780212	10.714286
255.224365	1017.157776	1508.670288	976.198425	-8.333328
255.601563	910.208313	1506.394775	939.790100	4.961835
255.978683	973.922913	1547.354126	987.576050	2.380955
256.355743	976.198425	1499.568237	1014.882263	7.391301
256.732819	930.687988	1570.109375	1003.504700	11.387907
257.109894	944.341125	1549.629639	1046.739624	16.917305
257.486877	1005.780212	1576.935913	1064.943726	10.358562
257.863831	1028.535400	1683.885376	983.024963	-6.944448
258.240753	1008.055725	1672.507813	978.473938	-4.452057
258.617645	1017.157776	1692.987427	980.749451	-5.387205
258.994507	1003.504700	1799.937012	1001.229126	-0.285721
259.371307	980.749451	1836.345337	1023.984375	5.053195
259.748108	985.300537	2125.336426	960.269775	-2.195612
260.124878	998.953613	2314.204590	944.341125	-4.152248
260.501617	898.830688	2500.797363	964.820801	4.119318
260.878296	919.310425	2803.441650	969.371887	2.657005
261.254944	951.167725	2889.911377	994.402588	2.230045
261.631561	989.851563	2864.880615	1060.392700	3.762136
262.008179	946.616638	2521.277100	1055.841675	6.936419
262.384735	960.269775	2168.571289	964.820801	0.376646
262.761261	973.922913	2018.386963	1010.331238	3.485838
263.137695	926.136963	2027.489014	994.402588	6.198347
263.514191	928.412476	1934.192627	1028.535400	9.954753
263.890594	996.678101	1970.601074	980.749451	-1.635514
264.267029	944.341125	1909.161987	978.473938	3.537736
264.643341	978.473938	1875.029175	996.678101	2.030456
265.019653	942.065613	1845.447388	992.127075	5.541562
265.395935	992.127075	1831.794189	980.749451	-1.355016
265.772217	1017.157776	1863.651489	932.963501	-9.946238
266.148407	953.443237	1829.518677	1019.433350	7.532469
266.524597	992.127075	1970.601074	1037.637451	4.651158
266.900726	926.136963	2029.764526	998.953613	6.597937
267.276855	967.096313	2004.733887	983.024963	1.535088
267.652924	967.096313	2241.387939	946.616638	-1.607142
268.028992	953.443237	2168.571289	942.065613	-0.936331
268.404999	955.718750	2118.509766	944.341125	-0.978475
268.781006	894.279663	2111.683350	1019.433350	10.280376
269.156921	980.749451	2125.336426	983.024963	0.198806
269.532837	973.922913	2170.846924	1001.229126	2.281366
269.908661	953.443237	2086.652588	1001.229126	4.216863
270.284546	892.004150	2143.540527	973.922913	6.545456
270.660339	1023.984375	2148.091553	960.269775	-5.668018
271.036133	937.514587	2141.265137	971.647400	2.835539
271.411835	944.341125	2364.266113	1026.259888	5.769231
271.787537	969.371887	2448.460449	1021.708862	3.538461
272.163239	967.096313	2616.848877	1033.086426	4.000000
272.538849	1035.361938	2780.686523	1039.912964	0.260755
272.914459	987.576050	2812.543701	1044.463989	3.117203
273.290070	980.749451	2632.777588	978.473938	-0.137741
273.665588	944.341125	2491.695313	989.851563	2.941178
274.041046	996.678101	2537.205811	1064.943726	4.431314
274.416565	1010.331238	2441.633789	953.443237	-3.974562
274.791962	1005.780212	2389.296875	1030.810913	1.809209
275.167389	971.647400	2316.480225	1012.606750	3.045684
275.542755	983.024963	2402.949951	953.443237	-2.083330
275.918060	989.851563	2245.938965	953.443237	-2.898550
276.293365	1005.780212	2336.959961	998.953613	-0.512823
276.668640	976.198425	2475.766602	1030.810913	3.641881
277.043854	1023.984375	2489.419678	1028.535400	0.310558
277.419037	937.514587	2514.450439	994.402588	3.607503
277.794189	964.820801	2439.358398	996.678101	2.160494
278.169312	971.647400	2491.695313	1092.250000	7.934132
278.544373	976.198425	2514.450439	932.963501	-2.810653
278.919464	930.687988	2509.899414	1014.882263	5.331412
279.294464	935.239075	2330.133301	971.647400	2.610114
279.669464	985.300537	2459.837891	976.198425	-0.617286
280.044403	1012.606750	2380.194824	978.473938	-2.495840
280.419312	944.341125	2437.082764	1019.433350	5.030490
280.794189	1019.433350	2430.256104	1001.229126	-1.290327
281.169037	1037.637451	2559.960938	1055.841675	1.195818
281.543854	998.953613	2553.134277	983.024963	-1.024891
281.918671	980.749451	2589.542725	989.851563	0.565773
282.293365	987.576050	2869.431641	992.127075	0.241837
282.668091	926.136963	2878.533936	944.341125	0.932401
283.042786	978.473938	3003.687500	976.198425	-0.112359
283.417419	967.096313	3005.962891	1017.157776	2.455358
283.792053	980.749451	2889.911377	964.820801	-0.834327
284.166595	973.922913	2937.697266	1010.331238	1.853997
284.541138	960.269775	2785.237549	1046.739624	4.738158
284.915619	998.953613	2939.972900	1014.882263	0.820633
285.290100	1055.841675	2921.768799	1028.535400	-1.463416
285.664520	996.678101	2894.462402	983.024963	-0.719425
286.038940	930.687988	2935.421875	1001.229126	3.518728
286.413300	987.576050	3140.218750	1033.086426	2.114163
286.787628	896.555176	3165.249512	985.300537	3.911737
287.161896	955.718750	3219.861816	1008.055725	2.311558
287.536194	1001.229126	3304.056152	994.402588	-0.296442
287.910400	987.576050	3137.943115	1033.086426	2.116400
288.284607	937.514587	3074.228516	957.994263	0.958466
288.658752	955.718750	2935.421875	1053.566162	4.942530
289.032867	971.647400	2814.819336	1010.331238	2.098765
289.406921	1005.780212	2851.227539	1005.780212	0.000000
289.781006	912.483826	2853.503174	1089.974487	9.144198
290.154999	1008.055725	2878.533936	1021.708862	0.729928
290.529022	1003.504700	3169.800537	944.341125	-2.731094
290.902954	910.208313	3112.912354	1010.331238	4.545455
291.276825	1026.259888	3253.994629	1099.076538	3.268641
291.650757	985.300537	3331.362549	992.127075	0.290979
292.024597	960.269775	3297.229736	957.994263	-0.097371
292.398407	962.545288	3265.372314	1074.045776	4.841896
292.772156	969.371887	3119.739014	1071.770264	4.761902
293.145905	978.473938	3115.187988	1037.637451	2.768902
293.519592	989.851563	2969.554688	1026.259888	1.839080
293.893280	1037.637451	3053.749023	996.678101	-2.031601
294.266907	917.034912	3110.636963	1001.229126	3.838172
294.640533	980.749451	3294.954102	948.892151	-1.376598
295.014069	978.473938	3249.443604	926.136963	-2.304609
295.387604	1001.229126	3547.536865	1074.045776	2.859696
295.761078	1019.433350	3588.496338	1030.810913	0.442868
296.134552	967.096313	3465.618164	1001.229126	1.366120
296.507996	967.096313	3547.536865	989.851563	0.881836
296.881378	923.861450	3549.812500	1014.882263	3.466203
297.254730	939.790100	3729.578613	1092.250000	5.464927
297.628021	1028.535400	3988.988037	996.678101	-1.076096
298.001282	953.443237	4034.498291	953.443237	0.000000
298.374573	1019.433350	4091.386475	976.198425	-1.407408
298.747803	1001.229126	3909.344727	1026.259888	0.860721
299.121002	998.953613	3747.782715	1005.780212	0.248346
299.494141	885.177612	3602.149414	1010.331238	4.606365
299.867188	1001.229126	3565.741211	998.953613	-0.088731
300.240265	1001.229126	3388.250488	1035.361938	1.429933
300.613312	969.371887	3367.770752	1023.984375	2.277039
300.986328	1026.259888	3345.015625	1003.504700	-0.981353
301.359314	987.576050	3203.933350	1012.606750	1.129362
301.732239	951.167725	3140.218750	1087.698975	6.237006
302.105103	921.585938	3265.372314	1005.780212	3.592233
302.477997	953.443237	3188.004639	998.953613	2.036658
302.850830	1003.504700	3367.770752	1023.984375	0.866217
303.223602	1008.055725	3135.667725	1049.015137	1.925135
303.596375	1051.290649	3208.484375	1092.250000	1.898733
303.969116	973.922913	3071.953125	1071.770264	4.663772
304.341766	987.576050	3076.504150	1110.454102	5.882349
304.714478	980.749451	3156.147461	1069.494751	4.079497
305.087067	944.341125	3162.973877	1062.668213	5.333333
305.459656	989.851563	3144.769775	1135.484863	6.758182
305.832214	1003.504700	3172.075928	1149.138062	6.715636
306.204681	971.647400	3040.095703	1053.566162	3.960397
306.577148	907.932800	3056.024414	1130.933838	10.381356
306.949646	998.953613	3140.218750	1140.035889	6.588735
307.322021	921.585938	3167.524902	1256.087524	14.893619
307.694397	935.239075	3126.565674	1180.995239	11.214949
308.066742	1019.433350	3053.749023	1215.128052	9.619682
308.439026	980.749451	3324.535889	1267.465088	12.233010
308.811279	1001.229126	3217.586426	1326.628662	14.681726
309.183502	998.953613	3417.832275	1287.944824	11.947322
309.555695	946.616638	3481.546875	1338.006226	15.439857
309.927887	951.167725	3415.556641	1397.169800	18.097878
310.299988	1023.984375	3556.638916	1381.241089	14.106018
310.672058	942.065613	3499.750977	1399.445313	17.882563
311.044128	946.616638	3558.914551	1444.955688	19.076654
311.416168	914.759338	3654.486328	1415.373901	18.272425
311.788147	942.065613	3636.282227	1549.629639	22.550674
312.160065	967.096313	3615.802490	1483.639526	19.501719
312.531982	944.341125	3549.812500	1485.915039	20.786024
312.903870	992.127075	3433.760986	1551.905151	22.926373
313.275696	948.892151	3417.832275	1535.976563	23.778803
313.647491	1014.882263	3319.984863	1586.037964	24.777887
314.019318	1001.229126	3404.179199	1495.017212	20.549244
314.391022	1017.157776	3415.556641	1506.394775	20.398483
314.762726	1003.504700	3445.138428	1426.751587	17.334578
315.134369	989.851563	3563.465576	1533.701050	21.131742
315.505981	937.514587	3699.996826	1513.221313	20.840197
315.877594	976.198425	3759.160400	1572.384888	21.422731
316.249146	1049.015137	3593.047363	1601.966675	21.735241
316.620636	928.412476	3467.893799	1583.762451	25.806448
316.992157	973.922913	3276.750000	1508.670288	23.221342
317.363586	896.555176	3290.403076	1551.905151	27.376425
317.735016	985.300537	3256.270264	1547.354126	24.749496
318.106354	960.269775	3304.056152	1422.200562	19.708740
318.477722	1026.259888	3347.291016	1440.404663	17.843136
318.849060	919.310425	3253.994629	1499.568237	24.853804
319.220306	910.208313	3244.892578	1440.404663	22.709553
319.591522	1014.882263	3442.863037	1499.568237	19.962513
319.962738	985.300537	3454.240479	1520.047852	21.658985
320.333923	944.341125	3304.056152	1538.252075	25.168756
320.705017	1042.188477	3310.882813	1429.027100	17.051157
321.076111	998.953613	3329.086914	1469.986450	20.214846
321.447144	978.473938	3283.576416	1506.394775	22.902271
321.818176	914.759338	3222.137451	1413.098389	21.597631
