Jaz Data File
++++++++++++++++++++++++++++++++++++
Date: Wed Feb 07 06:53:53 2024
User: jaz
Dark Spectrum Present: Yes
Reference Spectrum Present: Yes
Processed Spectrum Present: Yes
Spectrometers: JAZA3692
Integration Time (usec): 49800 (JAZA3692)
Spectra Averaged: 1 (JAZA3692)
Boxcar Smoothing: 0 (JAZA3692)
Correct for Electrical Dark: No (JAZA3692)
Strobe/Lamp Enabled: Yes (JAZA3692)
Correct for Detector Non-linearity: No (JAZA3692)
Correct for Stray Light: No (JAZA3692)
Number of Pixels in Processed Spectrum: 2048
>>>>>Begin Processed Spectral Data<<<<<
W	D	R	S	P
190.244385	0.000000	0.000000	0.000000	0.000000
190.627136	0.000000	0.000000	0.000000	0.000000
191.009842	912.483826	932.963501	910.208313	-11.111078
191.392532	962.545288	928.412476	932.963501	86.666718
191.775177	957.994263	923.861450	898.830688	173.333435
192.157791	955.718750	953.443237	901.106262	2400.008057
192.540390	928.412476	907.932800	948.892151	-100.000000
192.922943	869.248962	1008.055725	917.034912	34.426239
193.305481	880.626526	978.473938	935.239075	55.813995
193.687958	944.341125	946.616638	942.065613	-100.000000
194.070419	944.341125	971.647400	953.443237	33.333408
194.452866	955.718750	967.096313	955.718750	0.000000
194.835251	969.371887	951.167725	907.932800	337.500214
195.217621	978.473938	953.443237	935.239075	172.727341
195.599960	948.892151	1017.157776	946.616638	-3.333321
195.982254	955.718750	914.759338	951.167725	11.111061
196.364517	905.657288	971.647400	969.371887	96.551735
196.746750	1008.055725	944.341125	996.678101	17.857170
197.128952	976.198425	948.892151	1001.229126	-91.666481
197.511139	953.443237	935.239075	955.718750	-12.499958
197.893280	932.963501	1033.086426	978.473938	45.454563
198.275391	939.790100	901.106262	907.932800	82.352997
198.657471	930.687988	980.749451	996.678101	131.818192
199.039520	964.820801	955.718750	939.790100	275.000671
199.421539	960.269775	946.616638	967.096313	-49.999775
199.803513	914.759338	960.269775	928.412476	30.000013
200.185471	948.892151	1053.566162	1010.331238	58.695644
200.567383	962.545288	1030.810913	946.616638	-23.333340
200.949265	1005.780212	935.239075	935.239075	100.000000
201.331131	964.820801	928.412476	1023.984375	-162.500122
201.712967	1080.872437	944.341125	860.146851	161.666641
202.094742	873.799988	1030.810913	932.963501	37.681145
202.476517	885.177612	1001.229126	951.167725	56.862778
202.858231	928.412476	951.167725	932.963501	19.999893
203.239944	942.065613	985.300537	967.096313	57.894634
203.621582	946.616638	957.994263	894.279663	-459.999146
204.003235	907.932800	923.861450	892.004150	-100.000000
204.384827	903.381775	985.300537	898.830688	-5.555609
204.766388	928.412476	935.239075	885.177612	-633.329468
205.147934	1003.504700	955.718750	878.351013	261.904785
205.529449	980.749451	957.994263	967.096313	60.000107
205.910904	896.555176	964.820801	953.443237	83.333389
206.292343	962.545288	985.300537	930.687988	-139.999786
206.673767	964.820801	1012.606750	937.514587	-57.142765
207.055115	892.004150	1001.229126	930.687988	35.416660
207.436462	937.514587	1001.229126	907.932800	-46.428631
207.817780	942.065613	944.341125	989.851563	2100.008057
208.199051	930.687988	1042.188477	930.687988	0.000000
208.580307	887.453125	973.922913	907.932800	23.684198
208.961517	901.106262	1005.780212	957.994263	54.347813
209.342712	948.892151	944.341125	860.146851	1950.006714
209.723846	944.341125	932.963501	887.453125	499.998932
210.104965	914.759338	930.687988	905.657288	-57.142639
210.486069	917.034912	1021.708862	901.106262	-15.217397
210.867111	871.524475	942.065613	939.790100	96.774208
211.248123	973.922913	1069.494751	896.555176	-80.952438
211.629120	937.514587	976.198425	866.973450	-182.352997
212.010071	946.616638	967.096313	937.514587	-44.444313
212.390991	994.402588	930.687988	876.075500	185.714249
212.771881	907.932800	980.749451	932.963501	34.374969
213.152756	989.851563	953.443237	976.198425	37.500042
213.533569	992.127075	983.024963	937.514587	599.997986
213.914368	1008.055725	992.127075	980.749451	171.428680
214.295135	962.545288	1017.157776	960.269775	-4.166653
214.675858	994.402588	1026.259888	903.381775	-285.714142
215.056549	928.412476	1033.086426	948.892151	19.565207
215.437225	926.136963	1026.259888	912.483826	-13.636374
215.817841	951.167725	976.198425	932.963501	-72.727585
216.198441	873.799988	1055.841675	937.514587	35.000004
216.579025	983.024963	960.269775	896.555176	380.000336
216.959549	932.963501	973.922913	942.065613	22.222271
217.340057	967.096313	1008.055725	921.585938	-111.110916
217.720535	953.443237	917.034912	892.004150	168.750107
218.100967	926.136963	1010.331238	942.065613	18.918922
218.481369	951.167725	910.208313	896.555176	133.333328
218.861740	996.678101	910.208313	944.341125	60.526314
219.242065	994.402588	996.678101	912.483826	-3600.013428
219.622391	926.136963	992.127075	962.545288	55.172394
220.002670	946.616638	951.167725	905.657288	-899.990601
220.382919	951.167725	992.127075	882.902100	-166.666763
220.763123	983.024963	953.443237	939.790100	146.153961
221.143295	978.473938	962.545288	957.994263	128.571320
221.523453	948.892151	957.994263	976.198425	299.999329
221.903549	955.718750	1003.504700	932.963501	-47.619122
222.283630	910.208313	1055.841675	939.790100	20.312508
222.663696	919.310425	1042.188477	962.545288	35.185181
223.043701	948.892151	1030.810913	1003.504700	66.666718
223.423676	964.820801	1058.117188	914.759338	-53.658524
223.803635	1033.086426	1042.188477	928.412476	-1150.004028
224.183548	1008.055725	998.953613	869.248962	1524.995117
224.563431	951.167725	987.576050	926.136963	-68.750107
224.943283	960.269775	1026.259888	946.616638	-20.689671
225.323105	873.799988	1069.494751	983.024963	55.813950
225.702881	885.177612	978.473938	894.279663	9.756065
226.082642	910.208313	1042.188477	921.585938	8.620708
226.462357	903.381775	1028.535400	969.371887	52.727287
226.842041	955.718750	1037.637451	917.034912	-47.222229
227.221695	892.004150	1019.433350	887.453125	-3.571415
227.601318	987.576050	1058.117188	951.167725	-51.612896
227.980911	930.687988	1044.463989	905.657288	-21.999983
228.360474	917.034912	1012.606750	996.678101	83.333321
228.739990	962.545288	1133.209351	946.616638	-9.333336
229.119476	905.657288	1149.138062	960.269775	22.429897
229.498932	821.463013	1149.138062	919.310425	29.861111
229.878372	885.177612	1210.577026	1005.780212	37.062943
230.257736	901.106262	1240.158813	926.136963	7.382543
230.637115	944.341125	1233.332275	939.790100	-1.574798
231.016449	935.239075	1142.311401	967.096313	15.384595
231.395737	871.524475	1133.209351	894.279663	8.695645
231.774994	898.830688	1183.270874	948.892151	17.599997
232.154221	926.136963	1153.689087	926.136963	0.000000
232.533417	939.790100	1117.280762	964.820801	14.102545
232.912582	921.585938	1133.209351	896.555176	-11.827973
233.291702	935.239075	1121.831787	898.830688	-19.512222
233.670792	944.341125	1185.546387	937.514587	-2.830178
234.049866	942.065613	1126.382813	957.994263	8.641977
234.428894	955.718750	1149.138062	942.065613	-7.058828
234.807892	951.167725	1121.831787	878.351013	-42.666695
235.186874	944.341125	1128.658325	917.034912	-14.814794
235.565781	882.902100	1151.413574	926.136963	16.101683
235.944687	1019.433350	1149.138062	987.576050	-24.561405
236.323547	967.096313	1199.199463	851.044800	-49.999973
236.702377	955.718750	1199.199463	937.514587	-7.476635
237.081177	985.300537	1169.617676	889.728638	-51.851879
237.459946	932.963501	1274.291626	987.576050	16.000015
237.838669	953.443237	1210.577026	976.198425	8.849552
238.217361	894.279663	1151.413574	962.545288	26.548666
238.596039	948.892151	1083.147949	923.861450	-18.644037
238.974670	914.759338	1174.168701	962.545288	18.421059
239.353271	905.657288	1169.617676	969.371887	24.137939
239.731842	957.994263	1140.035889	917.034912	-22.499992
240.110367	914.759338	1240.158813	994.402588	24.475531
240.488876	896.555176	1192.372925	919.310425	7.692320
240.867340	971.647400	1244.709839	930.687988	-15.000017
241.245789	901.106262	1303.873413	857.871338	-10.734471
241.624176	935.239075	1376.690063	894.279663	-9.278360
242.002548	932.963501	1281.118164	969.371887	10.457532
242.380890	887.453125	1401.720825	971.647400	16.371683
242.759186	957.994263	1529.150024	937.514587	-3.585655
243.137451	944.341125	1622.446289	980.749451	5.369127
243.515686	939.790100	1670.232300	926.136963	-1.869161
243.893890	928.412476	1683.885376	932.963501	0.602408
244.272049	869.248962	1665.681274	894.279663	3.142853
244.650192	1026.259888	1590.588989	971.647400	-9.677419
245.028290	932.963501	1590.588989	989.851563	8.650526
245.406357	928.412476	1510.945801	989.851563	10.546880
245.784393	912.483826	1497.292725	1033.086426	20.622566
246.162384	973.922913	1433.578125	953.443237	-4.455443
246.540359	889.728638	1549.629639	923.861450	5.172414
246.918289	955.718750	1620.170776	1014.882263	8.904106
247.296204	964.820801	1795.385864	971.647400	0.821922
247.674057	1005.780212	1995.631714	1030.810913	2.528733
248.051895	996.678101	2339.235352	951.167725	-3.389827
248.429703	919.310425	2359.715088	910.208313	-0.631914
248.807465	907.932800	2325.582275	912.483826	0.321026
249.185196	1001.229126	2093.479248	989.851563	-1.041663
249.562897	946.616638	1959.223389	930.687988	-1.573034
249.940567	889.728638	1884.131226	1037.637451	14.874138
250.318192	976.198425	1642.926025	971.647400	-0.682591
250.695801	960.269775	1667.956787	919.310425	-5.787777
251.073349	1019.433350	1661.130127	896.555176	-19.148947
251.450882	992.127075	1567.833862	939.790100	-9.090908
251.828400	985.300537	1563.282837	903.381775	-14.173230
252.205872	914.759338	1613.344238	962.545288	6.840393
252.583313	905.657288	1633.823975	960.269775	7.499998
252.960693	978.473938	1733.946899	903.381775	-9.939755
253.338074	983.024963	1768.079712	1042.188477	7.536228
253.715408	951.167725	1722.569214	917.034912	-4.424779
254.092682	928.412476	1720.293701	964.820801	4.597700
254.469955	894.279663	1570.109375	930.687988	5.387204
254.847198	930.687988	1658.854614	976.198425	6.250003
255.224365	866.973450	1565.558350	930.687988	9.120515
255.601563	919.310425	1535.976563	892.004150	-4.428048
255.978683	1005.780212	1576.935913	903.381775	-17.928288
256.355743	896.555176	1576.935913	969.371887	10.702348
256.732819	937.514587	1526.874512	917.034912	-3.474901
257.109894	894.279663	1586.037964	930.687988	5.263157
257.486877	932.963501	1558.731689	919.310425	-2.181811
257.863831	887.453125	1688.436401	919.310425	3.977274
258.240753	1008.055725	1818.141113	939.790100	-8.426967
258.617645	914.759338	1788.559326	921.585938	0.781254
258.994507	967.096313	1797.661377	978.473938	1.369866
259.371307	964.820801	1984.254150	1010.331238	4.464288
259.748108	971.647400	2209.530762	983.024963	0.919114
260.124878	951.167725	2364.266113	957.994263	0.483090
260.501617	919.310425	2555.409912	992.127075	4.450625
260.878296	946.616638	2846.676514	951.167725	0.239523
261.254944	960.269775	2983.207764	928.412476	-1.574804
261.631561	851.044800	2924.044189	994.402588	6.915476
262.008179	962.545288	2555.409912	987.576050	1.571431
262.384735	928.412476	2252.765625	957.994263	2.233678
262.761261	905.657288	2025.213501	978.473938	6.504064
263.137695	873.799988	1952.396851	885.177612	1.054854
263.514191	937.514587	1986.529663	996.678101	5.639910
263.890594	976.198425	1934.192627	919.310425	-5.938241
264.267029	957.994263	1925.090576	969.371887	1.176473
264.643341	898.830688	1868.202637	987.576050	9.154934
265.019653	953.443237	1790.834839	901.106262	-6.250000
265.395935	926.136963	1865.927002	973.922913	5.084747
265.772217	953.443237	1815.865601	969.371887	1.846966
266.148407	989.851563	1897.784302	914.759338	-8.270681
266.524597	976.198425	1884.131226	992.127075	1.754386
266.900726	939.790100	2088.927979	1064.943726	10.891088
267.276855	937.514587	2136.714111	1012.606750	6.261858
267.652924	992.127075	2198.153076	960.269775	-2.641510
268.028992	1005.780212	2191.326416	907.932800	-8.253362
268.404999	996.678101	2204.979736	928.412476	-5.649717
268.781006	935.239075	2198.153076	989.851563	4.324323
269.156921	946.616638	2195.877686	962.545288	1.275046
269.532837	967.096313	2245.938965	971.647400	0.355875
269.908661	901.106262	2209.530762	928.412476	2.086954
270.284546	901.106262	2093.479248	1012.606750	9.351141
270.660339	976.198425	2141.265137	910.208313	-5.664063
271.036133	976.198425	2195.877686	1033.086426	4.664177
271.411835	885.177612	2195.877686	953.443237	5.208333
271.787537	967.096313	2407.500977	948.892151	-1.263823
272.163239	978.473938	2748.829102	998.953613	1.156812
272.538849	939.790100	2796.614990	960.269775	1.102941
272.914459	946.616638	2848.952148	978.473938	1.674641
273.290070	864.697876	2673.737061	969.371887	5.786166
273.665588	960.269775	2607.746826	951.167725	-0.552484
274.041046	960.269775	2562.236328	953.443237	-0.426135
274.416565	942.065613	2466.664551	1028.535400	5.671642
274.791962	953.443237	2523.552490	1012.606750	3.768114
275.167389	905.657288	2421.154053	946.616638	2.702701
275.542755	930.687988	2255.041016	907.932800	-1.718212
275.918060	930.687988	2302.827148	935.239075	0.331678
276.293365	948.892151	2402.949951	1014.882263	4.538342
276.668640	976.198425	2437.082764	957.994263	-1.246106
277.043854	955.718750	2400.674561	1049.015137	6.456695
277.419037	919.310425	2523.552490	1023.984375	6.524823
277.794189	928.412476	2544.032227	960.269775	1.971832
278.169312	983.024963	2466.664551	1053.566162	4.754605
278.544373	987.576050	2532.654541	1010.331238	1.472753
278.919464	1028.535400	2437.082764	1017.157776	-0.807756
279.294464	976.198425	2437.082764	1021.708862	3.115266
279.669464	928.412476	2450.735840	1019.433350	5.979076
280.044403	969.371887	2311.929199	1039.912964	5.254232
280.419312	985.300537	2439.358398	1033.086426	3.286381
280.794189	998.953613	2521.277100	1005.780212	0.448433
281.169037	1030.810913	2603.195801	992.127075	-2.460202
281.543854	935.239075	2644.155273	1074.045776	8.122499
281.918671	960.269775	2701.043213	983.024963	1.307188
282.293365	955.718750	2853.503174	944.341125	-0.599521
282.668091	980.749451	3012.789551	1028.535400	2.351624
283.042786	957.994263	2980.932129	957.994263	0.000000
283.417419	973.922913	3112.912354	944.341125	-1.382980
283.792053	923.861450	3008.238525	928.412476	0.218340
284.166595	989.851563	2974.105713	1042.188477	2.637611
284.541138	921.585938	2782.961914	951.167725	1.589243
284.915619	937.514587	2835.298828	1012.606750	3.956834
285.290100	898.830688	2935.421875	962.545288	3.128492
285.664520	983.024963	3015.064941	1049.015137	3.247484
286.038940	935.239075	3035.544678	980.749451	2.166845
286.413300	932.963501	3231.239502	914.759338	-0.792079
286.787628	944.341125	3231.239502	946.616638	0.099502
287.161896	964.820801	3345.015625	987.576050	0.956025
287.536194	930.687988	3317.709229	1074.045776	6.005719
287.910400	937.514587	3231.239502	1010.331238	3.174603
288.284607	939.790100	3060.575439	1017.157776	3.648067
288.658752	878.351013	2978.656738	1012.606750	6.392200
289.032867	926.136963	2869.431641	964.820801	1.990632
289.406921	960.269775	3005.962891	960.269775	0.000000
289.781006	960.269775	3010.513916	980.749451	0.998890
290.154999	964.820801	2921.768799	914.759338	-2.558140
290.529022	953.443237	3110.636963	967.096313	0.632909
290.902954	928.412476	3438.312012	1017.157776	3.535811
291.276825	971.647400	3392.801514	969.371887	-0.093985
291.650757	930.687988	3370.046387	1042.188477	4.570894
292.024597	948.892151	3253.994629	951.167725	0.098719
292.398407	971.647400	3217.586426	942.065613	-1.317123
292.772156	914.759338	3267.647949	973.922913	2.514508
293.145905	946.616638	3056.024414	967.096313	0.970873
293.519592	962.545288	2983.207764	948.892151	-0.675676
293.893280	942.065613	2971.830078	1046.739624	5.156954
294.266907	976.198425	3108.361328	987.576050	0.533619
294.640533	937.514587	3372.321777	903.381775	-1.401869
295.014069	912.483826	3445.138428	976.198425	2.515724
295.387604	910.208313	3495.199951	1012.606750	3.961267
295.761078	898.830688	3586.220703	1017.157776	4.403049
296.134552	917.034912	3620.353516	1019.433350	3.787879
296.507996	882.902100	3704.547852	980.749451	3.467741
296.881378	921.585938	3743.231689	914.759338	-0.241937
297.254730	921.585938	3736.405273	971.647400	1.778497
297.628021	964.820801	3982.161377	1012.606750	1.583711
298.001282	953.443237	4161.927734	1001.229126	1.489360
298.374573	910.208313	4032.222900	1021.708862	3.571429
298.747803	953.443237	4171.029785	1069.494751	3.606788
299.121002	885.177612	3811.497314	1017.157776	4.510108
299.494141	1014.882263	3652.210938	980.749451	-1.294219
299.867188	944.341125	3463.342773	985.300537	1.626018
300.240265	935.239075	3483.822266	978.473938	1.696427
300.613312	914.759338	3351.842041	996.678101	3.361345
300.986328	919.310425	3288.127441	1001.229126	3.458212
301.359314	976.198425	3340.464600	992.127075	0.673725
301.732239	898.830688	3326.811523	996.678101	4.029991
302.105103	1053.566162	3499.750977	1001.229126	-2.139537
302.477997	976.198425	3440.587402	1026.259888	2.031394
302.850830	944.341125	3381.423828	1033.086426	3.641456
303.223602	946.616638	3228.964111	1023.984375	3.389832
303.596375	923.861450	3144.769775	1030.810913	4.815573
303.969116	894.279663	3160.698486	971.647400	3.413656
304.341766	957.994263	3112.912354	1033.086426	3.484688
304.714478	923.861450	3108.361328	994.402588	3.229166
305.087067	910.208313	3119.739014	1078.596802	7.621007
305.459656	898.830688	3208.484375	1037.637451	6.009851
305.832214	841.942688	3074.228516	1051.290649	9.378188
306.204681	964.820801	3017.340576	1110.454102	7.095342
306.577148	935.239075	3056.024414	1067.219238	6.223174
306.949646	930.687988	3242.617188	1121.831787	8.267718
307.322021	912.483826	3110.636963	1142.311401	10.455485
307.694397	994.402588	3128.841064	1192.372925	9.275055
308.066742	923.861450	3158.422852	1253.812012	14.765785
308.439026	928.412476	3288.127441	1183.270874	10.800389
308.811279	926.136963	3315.433838	1267.465088	14.285714
309.183502	964.820801	3397.352539	1281.118164	13.002805
309.555695	917.034912	3634.006836	1406.271851	18.006699
309.927887	980.749451	3606.700439	1353.934937	14.211442
310.299988	983.024963	3513.404053	1344.832764	14.298561
310.672058	892.004150	3670.415039	1472.261963	20.884521
311.044128	894.279663	3677.241699	1390.343262	17.825024
311.416168	969.371887	3611.251465	1492.741699	19.810509
311.788147	917.034912	3586.220703	1517.772339	22.506392
312.160065	1014.882263	3775.089111	1403.996338	14.097280
312.531982	983.024963	3531.608398	1476.812988	19.374998
312.903870	926.136963	3542.985840	1485.915039	21.391304
313.275696	907.932800	3429.209961	1449.506714	21.480143
313.647491	992.127075	3381.423828	1392.618774	16.761906
314.019318	964.820801	3360.944336	1417.649414	18.898384
314.391022	1012.606750	3340.464600	1501.843750	21.016619
314.762726	939.790100	3451.965088	1533.701050	23.641304
315.134369	946.616638	3533.883789	1492.741699	21.108183
315.505981	926.136963	3738.680664	1451.782227	18.689320
315.877594	948.892151	3779.640137	1510.945801	19.855305
316.249146	992.127075	3611.251465	1529.150024	20.503910
316.620636	978.473938	3426.934326	1367.588013	15.892194
316.992157	1008.055725	3381.423828	1365.312500	15.052733
317.363586	983.024963	3370.046387	1426.751587	18.589134
317.735016	937.514587	3306.331787	1447.231201	21.517769
318.106354	992.127075	3363.219727	1353.934937	15.259119
318.477722	912.483826	3356.393066	1374.414551	18.901304
318.849060	912.483826	3347.291016	1426.751587	21.121498
319.220306	969.371887	3374.597412	1353.934937	15.988647
319.591522	921.585938	3456.516113	1403.996338	19.030519
319.962738	942.065613	3495.199951	1410.822876	18.360071
320.333923	932.963501	3529.332764	1413.098389	18.492552
320.705017	948.892151	3556.638916	1435.853638	18.673649
321.076111	903.381775	3476.995850	1458.608887	21.573830
321.447144	942.065613	3340.464600	1424.476074	20.113853
321.818176	892.004150	3203.933350	1413.098389	22.539368
322.189178	969.371887	3272.198975	1358.485962	16.897234
322.560120	919.310425	3385.974854	1353.934937	17.619928
322.931030	873.799988	3279.025391	1369.863525	20.624411
